Timestamp,F3 Value,F3 Quality,FC5 Value,FC5 Quality,F7 Value,F7 Quality,T7 Value,T7 Quality,P7 Value,P7 Quality,O1 Value,O1 Quality,O2 Value,O2 Quality,P8 Value,P8 Quality,T8 Value,T8 Quality,F8 Value,F8 Quality,AF4 Value,AF4 Quality,FC6 Value,FC6 Quality,F4 Value,F4 Quality,AF3 Value,AF3 Quality,X Value,Y Value,Z Value
2018-06-06 11:46:27.056559,4039.677419354839,0,4019.677419354839,0,4100.645161290323,0,4156.451612903225,0,4079.0322580645166,0,4104.516129032258,0,4079.3548387096776,0,4076.451612903226,0,3552.258064516129,0,4026.1290322580644,0,4046.129032258065,0,4026.1290322580644,0,4065.161290322581,0,4039.3548387096776,0,0,0,?
2018-06-06 11:46:27.056559,4072.5806451612902,0,4037.0967741935488,0,4117.41935483871,0,4130.967741935484,0,4070.967741935484,0,4097.741935483871,0,4055.8064516129034,0,4060.645161290323,0,3452.258064516129,0,4051.935483870968,0,4071.935483870968,0,4050.967741935484,0,4070.0,0,4033.225806451613,0,0,0,?
2018-06-06 11:46:27.056559,4091.2903225806454,0,4135.806451612903,0,4132.580645161291,0,4147.41935483871,0,4092.9032258064517,0,4116.451612903225,0,4106.451612903226,0,4075.483870967742,0,3322.9032258064517,0,4075.8064516129034,0,4112.580645161291,0,4070.645161290323,0,4094.8387096774195,0,4096.451612903226,0,0,0,?
2018-06-06 11:46:27.088562,4074.516129032258,0,4117.096774193548,0,4115.1612903225805,0,4134.193548387097,0,4036.129032258065,0,4086.1290322580644,0,4063.8709677419356,0,4051.935483870968,0,3276.7741935483873,0,4013.8709677419356,0,4101.612903225807,0,4010.967741935484,0,4051.2903225806454,0,4046.129032258065,0,0,0,?
2018-06-06 11:46:27.098563,4071.935483870968,0,4069.0322580645166,0,4083.8709677419356,0,4146.774193548387,0,4077.7419354838707,0,4107.741935483871,0,4061.2903225806454,0,4073.548387096774,0,3257.4193548387098,0,4000.6451612903224,0,4079.6774193548385,0,4044.8387096774195,0,4051.2903225806454,0,4042.2580645161293,0,0,0,?
2018-06-06 11:46:27.098563,4074.5161290322585,0,4096.129032258064,0,4088.0645161290327,0,4097.096774193548,0,4043.225806451613,0,4103.548387096775,0,4056.1290322580644,0,4056.451612903226,0,3232.5806451612907,0,4021.2903225806454,0,4095.8064516129034,0,4081.935483870968,0,4005.1612903225805,0,4079.6774193548385,0,0,0,?
2018-06-06 11:46:27.122566,4057.0967741935488,0,4125.4838709677415,0,4093.5483870967746,0,4097.741935483871,0,4040.0,0,4090.0,0,4033.2258064516127,0,4036.129032258065,0,3335.1612903225805,0,4028.3870967741937,0,4100.967741935484,0,4105.806451612903,0,4052.2580645161293,0,4047.0967741935488,0,0,0,?
2018-06-06 11:46:27.122566,4089.0322580645166,0,4061.935483870968,0,4067.4193548387098,0,4142.580645161291,0,4043.5483870967746,0,4088.3870967741937,0,4050.967741935484,0,4054.8387096774195,0,3366.7741935483873,0,4030.967741935484,0,4105.1612903225805,0,4081.2903225806454,0,4060.967741935484,0,4033.8709677419356,0,0,0,?
2018-06-06 11:46:27.122566,4047.4193548387098,0,4092.258064516129,0,4079.6774193548385,0,4100.645161290323,0,4080.3225806451615,0,4100.0,0,4086.7741935483873,0,4080.645161290323,0,3398.3870967741937,0,4055.483870967742,0,4091.935483870968,0,4134.193548387097,0,4013.8709677419356,0,4056.129032258065,0,0,0,?
2018-06-06 11:46:27.122566,4083.225806451613,0,4120.322580645161,0,4067.4193548387098,0,4146.451612903225,0,4074.8387096774195,0,4076.1290322580644,0,4100.967741935484,0,4098.064516129032,0,3442.258064516129,0,4036.7741935483873,0,4117.419354838709,0,4117.419354838709,0,4043.8709677419356,0,4089.3548387096776,0,0,0,?
2018-06-06 11:46:27.128566,4106.129032258064,0,4130.322580645161,0,4075.483870967742,0,4117.096774193548,0,4071.935483870968,0,4100.322580645161,0,4096.129032258064,0,4082.9032258064517,0,3423.225806451613,0,4051.6129032258063,0,4130.322580645161,0,4126.129032258064,0,4039.0322580645166,0,4077.4193548387098,0,0,0,?
2018-06-06 11:46:27.129567,4075.1612903225805,0,4101.612903225807,0,4098.064516129032,0,4126.774193548387,0,4095.483870967742,0,4072.5806451612902,0,4079.032258064516,0,4113.548387096775,0,3521.2903225806454,0,4047.741935483871,0,4100.967741935484,0,4138.709677419355,0,4065.483870967742,0,4072.258064516129,0,0,0,?
2018-06-06 11:46:27.129567,4080.6451612903224,0,4126.451612903226,0,4107.741935483871,0,4111.612903225807,0,4103.870967741936,0,4100.322580645161,0,4104.193548387097,0,4078.7096774193546,0,3559.032258064516,0,4073.5483870967746,0,4129.354838709678,0,4099.354838709678,0,4083.8709677419356,0,4072.258064516129,0,0,0,?
2018-06-06 11:46:27.134567,4115.1612903225805,0,4129.677419354839,0,4099.677419354839,0,4116.451612903225,0,4111.290322580645,0,4103.225806451613,0,4093.548387096774,0,4084.1935483870966,0,3612.2580645161293,0,4105.483870967742,0,4124.5161290322585,0,4111.290322580646,0,4092.2580645161293,0,4080.967741935484,0,0,0,?
2018-06-06 11:46:27.134567,4130.967741935484,0,4143.225806451613,0,4100.0,0,4098.387096774194,0,4091.6129032258063,0,4108.709677419355,0,4081.6129032258063,0,4087.0967741935483,0,3607.4193548387098,0,4116.774193548387,0,4173.870967741936,0,4152.580645161291,0,4115.4838709677415,0,4109.354838709677,0,0,0,?
2018-06-06 11:46:27.134567,4145.4838709677415,0,4135.806451612903,0,4139.677419354839,0,4104.516129032258,0,4080.6451612903224,0,4114.193548387097,0,4073.2258064516127,0,4109.677419354839,0,3661.6129032258063,0,4070.0,0,4132.903225806452,0,4140.0,0,4105.483870967742,0,4099.032258064516,0,0,0,?
2018-06-06 11:46:27.139568,4096.774193548387,0,4146.129032258064,0,4127.419354838709,0,4106.129032258064,0,4078.064516129032,0,4106.451612903225,0,4070.967741935484,0,4080.967741935484,0,3618.3870967741937,0,4074.1935483870966,0,4142.580645161291,0,4134.193548387097,0,4150.967741935484,0,4070.6451612903224,0,0,0,?
2018-06-06 11:46:27.139568,4097.096774193548,0,4122.580645161291,0,4139.354838709677,0,4113.225806451613,0,4073.2258064516127,0,4110.322580645162,0,4068.064516129032,0,4075.1612903225805,0,3714.516129032258,0,4127.741935483871,0,4127.741935483871,0,4142.580645161291,0,4086.7741935483873,0,4117.096774193548,0,0,0,?
2018-06-06 11:46:27.139568,4100.0,0,4091.2903225806454,0,4111.935483870968,0,4107.096774193548,0,4075.8064516129034,0,4082.9032258064517,0,4077.0967741935483,0,4071.6129032258063,0,3716.1290322580644,0,4115.806451612903,0,4121.612903225807,0,4165.1612903225805,0,4072.9032258064517,0,4073.2258064516127,0,0,0,?
2018-06-06 11:46:27.139568,4108.064516129032,0,4065.483870967742,0,4144.516129032258,0,4106.451612903225,0,4089.3548387096776,0,4108.387096774193,0,4112.258064516129,0,4082.9032258064517,0,3791.935483870968,0,4126.774193548387,0,4142.258064516129,0,4128.064516129032,0,4135.4838709677415,0,4097.096774193548,0,0,0,?
2018-06-06 11:46:27.157569,4108.064516129032,0,4065.483870967742,0,4144.516129032258,0,4106.451612903225,0,4089.3548387096776,0,4108.387096774193,0,4112.258064516129,0,4082.9032258064517,0,3791.935483870968,0,4126.774193548387,0,4142.258064516129,0,4128.064516129032,0,4135.4838709677415,0,4097.096774193548,0,0,0,?
2018-06-06 11:46:27.157569,4096.774193548387,0,4064.8387096774195,0,4121.612903225807,0,4104.8387096774195,0,4075.483870967742,0,4068.3870967741937,0,4090.6451612903224,0,4071.2903225806454,0,3833.2258064516127,0,4112.258064516129,0,4113.548387096775,0,4129.354838709677,0,4118.709677419355,0,4131.935483870968,0,0,0,?
2018-06-06 11:46:27.163570,4139.354838709678,0,4092.2580645161293,0,4134.516129032258,0,4107.419354838709,0,4093.548387096774,0,4098.064516129032,0,4099.032258064516,0,4067.0967741935483,0,3860.6451612903224,0,4114.193548387097,0,4139.032258064516,0,4109.677419354839,0,4115.1612903225805,0,4146.774193548387,0,0,0,?
2018-06-06 11:46:27.169571,4105.806451612903,0,4094.193548387097,0,4144.8387096774195,0,4114.193548387097,0,4113.548387096775,0,4089.6774193548385,0,4116.451612903225,0,4064.8387096774195,0,3847.0967741935483,0,4102.903225806452,0,4097.41935483871,0,4143.870967741936,0,4102.580645161291,0,4097.741935483871,0,0,0,?
2018-06-06 11:46:27.180572,4135.1612903225805,0,4104.8387096774195,0,4114.5161290322585,0,4106.774193548387,0,4095.8064516129034,0,4069.6774193548385,0,4070.6451612903224,0,4099.354838709678,0,3899.032258064516,0,4114.5161290322585,0,4145.806451612903,0,4116.774193548387,0,4104.516129032258,0,4142.258064516129,0,0,0,?
2018-06-06 11:46:27.186572,4141.290322580646,0,4091.6129032258063,0,4144.193548387097,0,4112.580645161291,0,4105.806451612903,0,4123.225806451613,0,4093.548387096774,0,4082.258064516129,0,3889.3548387096776,0,4116.129032258064,0,4146.451612903226,0,4122.903225806452,0,4146.451612903225,0,4125.1612903225805,0,0,0,?
2018-06-06 11:46:27.213575,4136.451612903226,0,4074.8387096774195,0,4135.483870967742,0,4108.387096774193,0,4142.258064516129,0,4112.903225806452,0,4145.806451612903,0,4077.7419354838707,0,3910.645161290323,0,4076.7741935483873,0,4121.612903225807,0,4106.129032258064,0,4124.8387096774195,0,4107.41935483871,0,0,0,?
2018-06-06 11:46:27.213575,4136.451612903226,0,4074.8387096774195,0,4135.483870967742,0,4108.387096774193,0,4142.258064516129,0,4112.903225806452,0,4145.806451612903,0,4077.7419354838707,0,3910.645161290323,0,4076.7741935483873,0,4121.612903225807,0,4106.129032258064,0,4124.8387096774195,0,4107.41935483871,0,0,0,?
2018-06-06 11:46:27.214575,4150.0,0,4093.5483870967746,0,4144.5161290322585,0,4106.451612903225,0,4108.709677419355,0,4103.225806451613,0,4127.741935483871,0,4110.645161290323,0,3980.3225806451615,0,4108.387096774193,0,4138.064516129032,0,4139.032258064516,0,4140.0,0,4136.774193548387,0,0,0,?
2018-06-06 11:46:27.219576,4176.451612903226,0,4077.0967741935483,0,4160.0,0,4106.774193548387,0,4127.096774193548,0,4112.903225806452,0,4125.806451612903,0,4080.3225806451615,0,3997.741935483871,0,4110.645161290323,0,4166.774193548387,0,4111.935483870968,0,4109.677419354839,0,4126.129032258064,0,0,0,?
2018-06-06 11:46:27.240578,4150.322580645162,0,4075.483870967742,0,4125.483870967742,0,4116.451612903225,0,4140.322580645161,0,4103.548387096775,0,4126.451612903225,0,4114.5161290322585,0,4015.8064516129034,0,4097.096774193548,0,4179.032258064516,0,4151.290322580646,0,4108.709677419355,0,4139.354838709678,0,0,0,?
2018-06-06 11:46:27.246578,4164.8387096774195,0,4105.1612903225805,0,4140.322580645162,0,4143.225806451613,0,4098.064516129032,0,4110.0,0,4115.806451612903,0,4123.870967741936,0,4072.9032258064517,0,4134.5161290322585,0,4161.290322580645,0,4172.258064516129,0,4165.1612903225805,0,4154.193548387097,0,0,0,?
2018-06-06 11:46:27.258579,4164.5161290322585,0,4108.064516129032,0,4141.935483870968,0,4098.064516129032,0,4126.451612903226,0,4125.1612903225805,0,4136.774193548387,0,4119.354838709677,0,4068.709677419355,0,4132.258064516129,0,4192.903225806452,0,4171.290322580646,0,4163.870967741936,0,4169.354838709678,0,0,0,?
2018-06-06 11:46:27.258579,4164.8387096774195,0,4097.741935483871,0,4157.741935483871,0,4124.8387096774195,0,4138.709677419355,0,4118.064516129032,0,4127.096774193548,0,4108.064516129032,0,4082.258064516129,0,4138.064516129032,0,4138.709677419355,0,4142.258064516129,0,4147.741935483871,0,4144.193548387097,0,0,0,?
2018-06-06 11:46:27.279582,4138.387096774194,0,4080.967741935484,0,4140.0,0,4100.0,0,4098.709677419355,0,4111.612903225807,0,4142.580645161291,0,4100.645161290323,0,4104.8387096774195,0,4132.258064516129,0,4174.8387096774195,0,4144.193548387097,0,4101.612903225807,0,4129.032258064516,0,0,0,?
2018-06-06 11:46:27.279582,4101.290322580646,0,4046.129032258065,0,4102.258064516129,0,4123.225806451613,0,4087.741935483871,0,4108.064516129032,0,4097.41935483871,0,4050.967741935484,0,4098.064516129032,0,4114.8387096774195,0,4104.5161290322585,0,4081.935483870968,0,4106.129032258064,0,4113.225806451613,0,0,0,?
2018-06-06 11:46:27.279582,4136.129032258064,0,4021.935483870968,0,4114.8387096774195,0,4127.41935483871,0,4085.1612903225805,0,4091.935483870968,0,4081.6129032258063,0,4053.8709677419356,0,4142.903225806452,0,4136.774193548387,0,4112.903225806452,0,4055.8064516129034,0,4105.483870967742,0,4100.0,0,0,0,?
2018-06-06 11:46:27.279582,4127.096774193548,0,4011.935483870968,0,4085.8064516129034,0,4138.387096774194,0,4069.032258064516,0,4110.0,0,4111.935483870968,0,4034.8387096774195,0,4132.580645161291,0,4105.806451612903,0,4145.806451612903,0,4070.967741935484,0,4122.580645161291,0,4101.290322580646,0,0,0,?
2018-06-06 11:46:27.295583,4129.354838709677,0,4036.129032258065,0,4097.41935483871,0,4133.548387096775,0,4106.129032258064,0,4072.9032258064517,0,4093.8709677419356,0,4047.4193548387098,0,4229.677419354839,0,4105.4838709677415,0,4112.903225806452,0,4062.9032258064517,0,4124.5161290322585,0,4105.806451612903,0,0,0,?
2018-06-06 11:46:27.335587,4137.41935483871,0,4026.1290322580644,0,4111.612903225807,0,4107.741935483871,0,4081.935483870968,0,4078.064516129032,0,4085.483870967742,0,4070.0,0,4354.193548387097,0,4112.580645161291,0,4103.870967741936,0,4070.3225806451615,0,4097.096774193548,0,4111.935483870968,0,0,0,?
2018-06-06 11:46:27.335587,4151.612903225807,0,4010.967741935484,0,4090.967741935484,0,4130.322580645162,0,4106.129032258064,0,4086.1290322580644,0,4082.5806451612902,0,4074.1935483870966,0,4375.483870967742,0,4114.5161290322585,0,4091.935483870968,0,4062.9032258064517,0,4134.193548387097,0,4117.096774193548,0,0,0,?
2018-06-06 11:46:27.335587,4125.806451612903,0,4035.1612903225805,0,4078.0645161290327,0,4099.032258064516,0,4081.2903225806454,0,4112.580645161291,0,4078.709677419355,0,4030.0,0,4239.677419354839,0,4085.161290322581,0,4076.129032258065,0,4016.451612903226,0,4107.741935483871,0,4078.3870967741937,0,0,0,?
2018-06-06 11:46:27.335587,4138.064516129032,0,4045.483870967742,0,4060.0,0,4121.935483870968,0,4106.451612903226,0,4082.258064516129,0,4092.9032258064517,0,4049.3548387096776,0,4133.225806451613,0,4070.967741935484,0,4098.064516129032,0,3993.225806451613,0,4088.064516129032,0,4032.5806451612907,0,0,0,?
2018-06-06 11:46:27.335587,4114.5161290322585,0,4124.193548387097,0,4049.6774193548385,0,4108.064516129032,0,4094.5161290322585,0,4083.8709677419356,0,4072.5806451612902,0,4095.483870967742,0,4108.064516129032,0,4072.258064516129,0,4011.6129032258063,0,4070.0,0,4054.193548387097,0,4007.4193548387098,0,0,0,?
2018-06-06 11:46:27.347588,4066.7741935483873,0,4219.677419354838,0,4143.225806451613,0,4122.580645161291,0,4121.612903225807,0,4137.419354838709,0,4110.967741935484,0,4119.354838709677,0,4122.258064516129,0,4134.516129032258,0,4050.967741935484,0,4073.5483870967746,0,4108.387096774194,0,4008.7096774193546,0,0,0,?
2018-06-06 11:46:27.347588,4144.193548387097,0,4202.903225806452,0,4102.258064516129,0,4112.258064516129,0,4107.096774193548,0,4140.645161290323,0,4146.129032258064,0,4115.806451612903,0,4073.2258064516127,0,4118.709677419355,0,4104.5161290322585,0,4124.193548387097,0,4072.258064516129,0,4062.9032258064517,0,0,0,?
2018-06-06 11:46:27.362590,4139.677419354839,0,4233.870967741936,0,4126.451612903226,0,4085.8064516129034,0,4114.516129032258,0,4099.677419354839,0,4102.903225806452,0,4118.709677419355,0,4114.8387096774195,0,4101.290322580646,0,4051.2903225806454,0,4144.5161290322585,0,4116.129032258064,0,4066.1290322580644,0,0,0,?
2018-06-06 11:46:27.362590,4099.032258064516,0,4218.064516129033,0,4131.290322580645,0,4080.6451612903224,0,4104.5161290322585,0,4121.935483870968,0,4137.41935483871,0,4107.096774193548,0,4109.677419354839,0,4099.677419354839,0,4058.0645161290327,0,4130.322580645162,0,4094.193548387097,0,4079.0322580645166,0,0,0,?
2018-06-06 11:46:27.424596,4098.064516129032,0,4284.8387096774195,0,4117.741935483871,0,4074.1935483870966,0,4103.225806451613,0,4111.935483870968,0,4110.645161290323,0,4117.741935483871,0,4109.354838709677,0,4110.967741935484,0,4086.7741935483873,0,4114.193548387097,0,4110.0,0,4055.8064516129034,0,0,0,?
2018-06-06 11:46:27.424596,4137.419354838709,0,4264.5161290322585,0,4066.7741935483873,0,4068.064516129032,0,4136.774193548387,0,4105.4838709677415,0,4101.290322580646,0,4093.8709677419356,0,4132.258064516129,0,4140.645161290323,0,4059.0322580645166,0,4131.612903225807,0,4071.2903225806454,0,4083.225806451613,0,0,0,?
2018-06-06 11:46:27.424596,4094.516129032258,0,4271.935483870968,0,4111.290322580646,0,4110.645161290323,0,4101.935483870968,0,4099.032258064516,0,4090.3225806451615,0,4095.8064516129034,0,4121.612903225807,0,4133.870967741936,0,4065.483870967742,0,4081.6129032258063,0,4074.8387096774195,0,4077.7419354838707,0,0,0,?
2018-06-06 11:46:27.424596,4113.870967741936,0,4244.5161290322585,0,4100.645161290323,0,4072.258064516129,0,4105.483870967742,0,4137.419354838709,0,4116.129032258064,0,4110.0,0,4112.903225806452,0,4134.5161290322585,0,4078.7096774193546,0,4130.645161290323,0,4084.8387096774195,0,4092.9032258064517,0,0,0,?
2018-06-06 11:46:27.424596,4128.064516129032,0,4298.709677419355,0,4067.0967741935488,0,4070.3225806451615,0,4130.645161290323,0,4137.741935483871,0,4117.41935483871,0,4126.451612903226,0,4172.580645161291,0,4135.806451612903,0,4072.258064516129,0,4083.8709677419356,0,4075.483870967742,0,4090.0,0,0,0,?
2018-06-06 11:46:27.424596,4110.645161290323,0,4254.1935483870975,0,4038.3870967741937,0,4071.935483870968,0,4116.129032258064,0,4134.193548387097,0,4137.741935483871,0,4128.709677419355,0,4138.387096774193,0,4133.870967741936,0,4071.2903225806454,0,4114.5161290322585,0,4111.935483870968,0,4082.9032258064517,0,0,0,?
2018-06-06 11:46:27.424596,4130.0,0,4243.548387096775,0,4036.129032258065,0,4073.548387096774,0,4142.903225806452,0,4140.645161290323,0,4105.806451612903,0,4140.645161290323,0,4178.709677419355,0,4146.129032258064,0,4069.3548387096776,0,4070.0,0,4074.1935483870966,0,4086.451612903226,0,0,0,?
2018-06-06 11:46:27.424596,4137.419354838709,0,4223.225806451614,0,4062.5806451612902,0,4069.6774193548385,0,4142.258064516129,0,4110.322580645161,0,4143.870967741936,0,4121.612903225807,0,4172.903225806452,0,4107.741935483871,0,4073.2258064516127,0,4080.3225806451615,0,4101.612903225807,0,4097.096774193548,0,0,0,?
2018-06-06 11:46:27.446598,4129.354838709677,0,4245.161290322581,0,4033.8709677419356,0,4076.7741935483873,0,4146.129032258064,0,4139.032258064516,0,4111.290322580646,0,4109.354838709678,0,4165.4838709677415,0,4113.225806451613,0,4103.225806451613,0,4075.8064516129034,0,4107.419354838709,0,4081.612903225807,0,0,0,?
2018-06-06 11:46:27.446598,4138.064516129032,0,4230.322580645161,0,4044.5161290322585,0,4081.935483870968,0,4130.645161290323,0,4146.129032258064,0,4109.354838709678,0,4115.483870967742,0,4165.1612903225805,0,4130.645161290323,0,4100.322580645161,0,4098.387096774194,0,4116.774193548387,0,4076.7741935483873,0,0,0,?
2018-06-06 11:46:27.446598,4100.0,0,4188.387096774193,0,4085.161290322581,0,4103.870967741936,0,4178.387096774194,0,4099.354838709678,0,4129.677419354839,0,4118.064516129032,0,4195.4838709677415,0,4107.096774193548,0,4083.548387096774,0,4101.290322580646,0,4118.709677419355,0,4110.0,0,0,0,?
2018-06-06 11:46:27.456599,4101.612903225807,0,4207.74193548387,0,4071.2903225806454,0,4096.451612903225,0,4155.806451612903,0,4104.193548387097,0,4140.0,0,4138.064516129032,0,4230.0,0,4145.806451612903,0,4072.5806451612902,0,4071.6129032258063,0,4119.032258064516,0,4090.0,0,0,0,?
2018-06-06 11:46:27.462600,4136.451612903225,0,4207.741935483871,0,4080.0,0,4105.1612903225805,0,4136.129032258064,0,4104.8387096774195,0,4137.096774193548,0,4131.612903225807,0,4213.870967741936,0,4113.870967741936,0,4107.096774193548,0,4076.1290322580644,0,4111.290322580646,0,4100.967741935484,0,0,0,?
2018-06-06 11:46:27.482602,4131.935483870968,0,4168.709677419355,0,4084.8387096774195,0,4107.096774193548,0,4139.354838709678,0,4120.645161290323,0,4142.580645161291,0,4103.225806451613,0,4215.4838709677415,0,4130.645161290323,0,4101.935483870968,0,4068.7096774193546,0,4115.4838709677415,0,4096.451612903225,0,0,0,?
2018-06-06 11:46:27.483602,4114.193548387097,0,4181.290322580645,0,4081.935483870968,0,4113.225806451613,0,4152.258064516129,0,4110.0,0,4104.193548387097,0,4138.064516129032,0,4235.806451612903,0,4115.1612903225805,0,4074.8387096774195,0,4068.709677419355,0,4070.0,0,4067.0967741935483,0,0,0,?
2018-06-06 11:46:27.483602,4146.774193548387,0,4188.387096774193,0,4112.580645161291,0,4112.580645161291,0,4145.483870967742,0,4109.354838709678,0,4124.193548387097,0,4144.5161290322585,0,4230.322580645161,0,4116.451612903226,0,4083.8709677419356,0,4076.451612903226,0,4104.8387096774195,0,4107.741935483871,0,0,0,?
2018-06-06 11:46:27.494603,4104.5161290322585,0,4131.612903225807,0,4108.387096774194,0,4108.387096774193,0,4175.483870967742,0,4112.258064516129,0,4130.967741935484,0,4129.032258064516,0,4240.967741935484,0,4110.0,0,4069.3548387096776,0,4069.3548387096776,0,4111.290322580645,0,4112.258064516129,0,0,0,?
2018-06-06 11:46:27.527606,4127.741935483871,0,4168.064516129032,0,4095.8064516129034,0,4105.806451612903,0,4138.387096774194,0,4115.483870967742,0,4107.096774193548,0,4141.290322580646,0,4235.4838709677415,0,4110.0,0,4101.290322580645,0,4077.4193548387098,0,4120.645161290323,0,4117.741935483871,0,0,0,?
2018-06-06 11:46:27.527606,4122.258064516129,0,4162.258064516129,0,4114.193548387097,0,4109.032258064516,0,4129.354838709678,0,4146.129032258064,0,4118.387096774194,0,4107.096774193548,0,4236.451612903225,0,4146.451612903225,0,4105.4838709677415,0,4069.032258064516,0,4121.935483870968,0,4101.935483870968,0,0,0,?
2018-06-06 11:46:27.527606,4106.774193548387,0,4177.41935483871,0,4084.8387096774195,0,4115.806451612903,0,4127.096774193548,0,4101.935483870968,0,4105.1612903225805,0,4126.129032258064,0,4236.129032258064,0,4101.612903225807,0,4099.032258064516,0,4078.064516129032,0,4107.419354838709,0,4111.935483870968,0,0,0,?
2018-06-06 11:46:27.533607,4141.935483870968,0,4134.516129032258,0,4135.806451612903,0,4123.548387096775,0,4142.580645161291,0,4169.677419354839,0,4145.4838709677415,0,4199.032258064516,0,4206.451612903226,0,4146.129032258064,0,4147.741935483871,0,4153.548387096775,0,4130.0,0,4162.580645161291,0,0,0,?
2018-06-06 11:46:27.533607,4076.451612903226,0,4011.6129032258063,0,4062.9032258064517,0,4269.032258064516,0,4226.774193548386,0,4094.8387096774195,0,3905.8064516129034,0,4178.387096774193,0,4240.645161290322,0,4075.483870967742,0,4038.3870967741937,0,4075.161290322581,0,4068.0645161290327,0,4108.387096774194,0,0,0,?
2018-06-06 11:46:27.544608,3358.7096774193546,0,3108.3870967741937,0,3121.935483870968,0,3944.8387096774195,0,3211.2903225806454,0,3470.322580645161,0,3134.516129032258,0,3968.3870967741937,0,3775.8064516129034,0,3302.258064516129,0,3326.451612903226,0,3270.645161290323,0,3470.0,0,3418.7096774193546,0,0,0,?
2018-06-06 11:46:27.572611,3527.7419354838707,0,3399.3548387096776,0,3414.516129032258,0,3744.8387096774195,0,3417.4193548387098,0,3599.032258064516,0,3259.6774193548385,0,4119.677419354839,0,4032.5806451612907,0,3511.290322580645,0,3376.7741935483873,0,3491.6129032258063,0,3645.483870967742,0,3705.1612903225805,0,0,0,?
2018-06-06 11:46:27.572611,3676.1290322580644,0,3576.451612903226,0,3700.6451612903224,0,3835.8064516129034,0,3636.774193548387,0,3708.064516129032,0,3472.9032258064517,0,4198.064516129032,0,4068.0645161290327,0,3639.032258064516,0,3237.4193548387098,0,3695.8064516129034,0,3796.774193548387,0,3881.2903225806454,0,0,0,?
2018-06-06 11:46:27.572611,4098.709677419355,0,4256.774193548387,0,4321.612903225806,0,4764.5161290322585,0,4243.870967741936,0,4103.225806451613,0,4126.774193548387,0,4561.290322580645,0,5126.774193548387,0,4061.935483870968,0,3283.2258064516127,0,4172.258064516129,0,4157.741935483871,0,4328.709677419355,0,0,0,?
2018-06-06 11:46:27.572611,4083.548387096774,0,4216.129032258065,0,4371.290322580645,0,4404.193548387097,0,4296.451612903226,0,4063.548387096774,0,4073.8709677419356,0,4455.806451612903,0,6078.064516129033,0,4051.935483870968,0,3197.0967741935483,0,4136.774193548387,0,4136.774193548387,0,4389.354838709678,0,0,0,?
2018-06-06 11:46:27.581612,4120.322580645161,0,4209.677419354839,0,4335.1612903225805,0,3913.225806451613,0,4316.774193548387,0,4068.064516129032,0,4102.258064516129,0,4413.225806451613,0,5931.612903225807,0,4045.8064516129034,0,3285.8064516129034,0,4177.41935483871,0,4143.225806451613,0,4391.612903225807,0,0,0,?
2018-06-06 11:46:27.597613,4068.7096774193546,0,4250.967741935484,0,4331.935483870968,0,3504.193548387097,0,4229.032258064516,0,4071.935483870968,0,4135.806451612903,0,4387.096774193549,0,5563.870967741936,0,4047.0967741935483,0,3371.2903225806454,0,4123.870967741936,0,4096.451612903225,0,4319.354838709677,0,0,0,?
2018-06-06 11:46:27.597613,4099.032258064516,0,4241.935483870968,0,4282.903225806452,0,3450.3225806451615,0,4254.5161290322585,0,4064.8387096774195,0,4082.2580645161293,0,4352.258064516129,0,5588.064516129032,0,4082.258064516129,0,3453.8709677419356,0,4137.741935483871,0,4122.580645161291,0,4315.8064516129025,0,0,0,?
2018-06-06 11:46:27.601614,4114.193548387097,0,4271.935483870968,0,4302.258064516129,0,3466.129032258065,0,4254.193548387097,0,4043.548387096774,0,4161.612903225806,0,4303.548387096774,0,5543.225806451613,0,4111.290322580646,0,3517.0967741935483,0,4138.709677419355,0,4089.3548387096776,0,4340.967741935484,0,0,0,?
2018-06-06 11:46:27.609615,4119.032258064516,0,4328.387096774193,0,4259.032258064516,0,3449.6774193548385,0,4265.483870967742,0,4004.1935483870966,0,4114.8387096774195,0,4234.1935483870975,0,5191.935483870968,0,4057.4193548387098,0,3470.0,0,4107.096774193548,0,4076.7741935483873,0,4319.354838709677,0,0,0,?
2018-06-06 11:46:27.626616,4191.935483870968,0,4443.548387096774,0,4378.709677419355,0,3421.935483870968,0,4287.741935483871,0,4032.9032258064517,0,4195.161290322581,0,4289.354838709678,0,5478.709677419355,0,4129.032258064516,0,3414.193548387097,0,4175.806451612903,0,4132.903225806452,0,4367.41935483871,0,0,0,?
2018-06-06 11:46:27.626616,4157.096774193548,0,4433.225806451613,0,4328.387096774194,0,3431.290322580645,0,4318.064516129032,0,4000.0,0,4205.4838709677415,0,4230.322580645162,0,5549.032258064516,0,4107.741935483871,0,3367.741935483871,0,4127.096774193548,0,4138.709677419355,0,4297.419354838709,0,0,0,?
2018-06-06 11:46:27.684622,4269.677419354839,0,4558.709677419355,0,4594.516129032258,0,3323.225806451613,0,4365.806451612903,0,4106.774193548387,0,4165.4838709677415,0,4334.193548387097,0,5565.1612903225805,0,4284.5161290322585,0,3264.1935483870966,0,4229.677419354839,0,4218.709677419355,0,4256.451612903226,0,0,0,?
2018-06-06 11:46:27.684622,4232.258064516129,0,4489.354838709677,0,4597.096774193548,0,3305.1612903225805,0,4398.064516129032,0,4135.806451612903,0,4182.903225806452,0,4293.225806451613,0,5541.935483870968,0,4288.387096774194,0,3343.548387096774,0,4205.483870967742,0,4234.8387096774195,0,4309.032258064516,0,0,0,?
2018-06-06 11:46:27.684622,4256.774193548387,0,4548.387096774193,0,4852.903225806452,0,3237.4193548387098,0,4331.290322580646,0,4201.290322580645,0,4295.806451612903,0,4313.225806451613,0,5171.612903225806,0,4296.774193548387,0,3509.032258064516,0,4257.096774193549,0,4257.096774193549,0,4111.935483870968,0,0,0,?
2018-06-06 11:46:27.684622,4310.0,0,4525.483870967742,0,5240.0,0,3238.7096774193546,0,4332.258064516129,0,4176.774193548387,0,4236.774193548387,0,4288.709677419355,0,5278.064516129032,0,4312.903225806452,0,3691.2903225806454,0,4291.612903225807,0,4271.612903225807,0,4175.806451612903,0,0,0,?
2018-06-06 11:46:27.695623,4310.0,0,4525.483870967742,0,5240.0,0,3238.7096774193546,0,4332.258064516129,0,4176.774193548387,0,4236.774193548387,0,4288.709677419355,0,5278.064516129032,0,4312.903225806452,0,3691.2903225806454,0,4291.612903225807,0,4271.612903225807,0,4175.806451612903,0,0,0,?
2018-06-06 11:46:27.695623,4327.419354838709,0,4471.290322580645,0,5290.967741935484,0,3082.5806451612902,0,4319.677419354839,0,4114.193548387097,0,4200.645161290322,0,4237.74193548387,0,5047.74193548387,0,4393.225806451614,0,3853.548387096774,0,4230.645161290323,0,4242.58064516129,0,4074.8387096774195,0,0,0,?
2018-06-06 11:46:27.718625,4344.516129032258,0,4401.935483870968,0,5006.451612903225,0,3131.6129032258063,0,4337.74193548387,0,4091.2903225806454,0,4232.580645161291,0,4215.483870967742,0,5196.129032258064,0,4361.290322580646,0,3907.0967741935488,0,4227.741935483871,0,4238.387096774193,0,4087.4193548387098,0,0,0,?
2018-06-06 11:46:27.718625,4340.967741935484,0,4374.193548387097,0,4865.483870967742,0,3190.0,0,4274.8387096774195,0,4158.387096774193,0,4236.451612903226,0,4231.935483870968,0,5270.0,0,4351.290322580646,0,4022.5806451612902,0,4206.451612903226,0,4243.870967741936,0,4104.8387096774195,0,0,0,?
2018-06-06 11:46:27.718625,4341.612903225807,0,4348.709677419355,0,4885.4838709677415,0,3200.967741935484,0,4300.645161290322,0,4123.548387096775,0,4235.161290322581,0,4228.709677419354,0,5254.1935483870975,0,4297.74193548387,0,4071.2903225806454,0,4193.225806451613,0,4255.483870967742,0,4068.7096774193546,0,0,0,?
2018-06-06 11:46:27.718625,4331.612903225807,0,4362.25806451613,0,4851.612903225807,0,3218.0645161290327,0,4298.709677419354,0,4129.677419354839,0,4223.225806451614,0,4192.58064516129,0,5238.064516129032,0,4309.677419354838,0,4062.2580645161293,0,4183.225806451613,0,4268.064516129033,0,4083.548387096774,0,0,0,?
2018-06-06 11:46:27.719626,4292.258064516129,0,4262.903225806452,0,4784.193548387097,0,3348.3870967741937,0,4277.096774193548,0,4142.903225806452,0,4184.193548387097,0,4130.322580645161,0,5128.064516129033,0,4263.548387096775,0,4147.41935483871,0,4183.225806451613,0,4208.387096774193,0,4098.387096774193,0,0,0,?
2018-06-06 11:46:27.719626,4218.709677419355,0,4124.5161290322585,0,4562.258064516129,0,3555.483870967742,0,4146.451612903225,0,4008.064516129032,0,4095.161290322581,0,4038.7096774193546,0,4749.032258064516,0,4200.967741935484,0,4142.258064516129,0,4139.032258064516,0,4073.548387096774,0,4081.935483870968,0,0,0,?
2018-06-06 11:46:27.731627,4180.967741935484,0,4070.3225806451615,0,4454.5161290322585,0,3558.3870967741937,0,4004.1935483870966,0,3974.8387096774195,0,4049.0322580645166,0,3949.3548387096776,0,4606.774193548387,0,4129.677419354839,0,4112.258064516129,0,4028.7096774193546,0,4032.2580645161293,0,4027.0967741935483,0,0,0,?
2018-06-06 11:46:27.758629,4076.7741935483873,0,3919.032258064516,0,4319.354838709677,0,3609.3548387096776,0,3923.225806451613,0,3932.2580645161293,0,3924.193548387097,0,3840.6451612903224,0,4308.387096774193,0,4048.3870967741937,0,4064.5161290322585,0,3956.451612903226,0,3967.741935483871,0,3951.935483870968,0,0,0,?
2018-06-06 11:46:27.779632,4085.161290322581,0,3957.741935483871,0,4310.0,0,3636.1290322580644,0,3926.1290322580644,0,3898.7096774193546,0,3888.7096774193546,0,3789.3548387096776,0,4199.677419354839,0,3963.548387096774,0,4071.612903225807,0,3908.064516129032,0,3949.6774193548385,0,3961.2903225806454,0,0,0,?
2018-06-06 11:46:27.779632,4094.8387096774195,0,3913.225806451613,0,4226.451612903226,0,3758.7096774193546,0,3927.0967741935483,0,3941.2903225806454,0,3941.935483870968,0,3785.806451612903,0,4134.8387096774195,0,4045.483870967742,0,4097.41935483871,0,3971.2903225806454,0,3977.4193548387098,0,4011.935483870968,0,0,0,?
2018-06-06 11:46:27.779632,4113.870967741936,0,3919.3548387096776,0,4221.290322580646,0,3791.6129032258063,0,3950.967741935484,0,3953.2258064516127,0,3935.483870967742,0,3844.1935483870966,0,4142.903225806452,0,4047.4193548387098,0,4106.451612903226,0,3961.2903225806454,0,3989.3548387096776,0,4016.7741935483873,0,0,0,?
2018-06-06 11:46:27.779632,4076.451612903226,0,3940.967741935484,0,4190.967741935484,0,3782.258064516129,0,3953.2258064516127,0,3990.3225806451615,0,3985.1612903225805,0,3825.483870967742,0,4054.1935483870966,0,3974.193548387097,0,4130.322580645161,0,3987.741935483871,0,3998.7096774193546,0,3970.0000000000005,0,0,0,?
2018-06-06 11:46:27.784632,4123.548387096775,0,3963.2258064516127,0,4221.290322580646,0,3820.0,0,4001.612903225807,0,4028.0645161290327,0,4014.8387096774195,0,3853.548387096774,0,4085.8064516129034,0,4034.1935483870966,0,4205.806451612903,0,4079.0322580645166,0,3967.4193548387098,0,4032.5806451612907,0,0,0,?
2018-06-06 11:46:27.784632,4100.0,0,3998.3870967741937,0,4264.1935483870975,0,3871.9354838709673,0,4030.967741935484,0,4038.0645161290327,0,4019.3548387096776,0,3875.483870967742,0,4153.548387096775,0,4040.0,0,4247.096774193548,0,4021.935483870968,0,4011.935483870968,0,4000.0,0,0,0,?
2018-06-06 11:46:27.795633,4131.290322580645,0,3978.7096774193546,0,4225.806451612903,0,3908.7096774193546,0,4063.2258064516127,0,4030.967741935484,0,4066.1290322580644,0,3910.967741935484,0,4188.709677419354,0,4006.7741935483873,0,4244.5161290322585,0,4012.9032258064517,0,4050.3225806451615,0,4032.9032258064517,0,0,0,?
2018-06-06 11:46:27.806634,4167.096774193548,0,4065.8064516129034,0,4269.677419354839,0,4012.2580645161293,0,4173.225806451613,0,4101.612903225807,0,4132.258064516129,0,4037.0967741935488,0,4345.483870967742,0,4164.8387096774195,0,4398.064516129032,0,4164.8387096774195,0,4045.161290322581,0,4113.225806451613,0,0,0,?
2018-06-06 11:46:27.822636,4131.290322580645,0,4083.8709677419356,0,4232.25806451613,0,4044.5161290322585,0,4192.258064516129,0,4105.1612903225805,0,4137.096774193548,0,3977.4193548387098,0,4365.4838709677415,0,4138.709677419355,0,4407.41935483871,0,4115.4838709677415,0,4083.2258064516127,0,4107.096774193548,0,0,0,?
2018-06-06 11:46:27.834637,4146.451612903226,0,4100.0,0,4238.064516129032,0,4069.3548387096776,0,4189.032258064516,0,4077.0967741935483,0,4169.354838709678,0,3992.2580645161293,0,4232.580645161291,0,4134.193548387097,0,4387.741935483871,0,4167.741935483871,0,4109.677419354839,0,4128.709677419355,0,0,0,?
2018-06-06 11:46:27.834637,4156.129032258064,0,4055.8064516129034,0,4214.193548387097,0,4102.258064516129,0,4182.580645161291,0,4125.1612903225805,0,4187.096774193548,0,3975.8064516129034,0,4288.387096774193,0,4118.064516129032,0,4375.806451612903,0,4145.483870967742,0,4073.2258064516127,0,4109.354838709678,0,0,0,?
2018-06-06 11:46:27.834637,4033.548387096774,0,3941.935483870968,0,4036.451612903226,0,4098.709677419355,0,4090.3225806451615,0,4046.129032258065,0,4082.258064516129,0,3771.6129032258063,0,4269.032258064516,0,3979.0322580645166,0,4259.032258064516,0,4000.0,0,4071.935483870968,0,4096.129032258064,0,0,0,?
2018-06-06 11:46:27.845638,4091.935483870968,0,3978.064516129032,0,4148.387096774193,0,4103.548387096775,0,4123.548387096775,0,4071.2903225806454,0,4124.516129032258,0,3813.8709677419356,0,4500.967741935484,0,4036.7741935483873,0,4308.387096774193,0,4076.451612903226,0,4038.3870967741937,0,4055.8064516129034,0,0,0,?
2018-06-06 11:46:27.845638,4018.709677419355,0,3943.8709677419356,0,4122.258064516129,0,4099.032258064516,0,4114.8387096774195,0,4076.451612903226,0,4144.8387096774195,0,3814.1935483870966,0,4785.1612903225805,0,4067.7419354838707,0,4285.4838709677415,0,4131.935483870968,0,3939.6774193548385,0,4018.3870967741937,0,0,0,?
2018-06-06 11:46:27.860640,4028.0645161290327,0,4011.2903225806454,0,4133.225806451613,0,4138.709677419355,0,4153.548387096775,0,4071.935483870968,0,4142.903225806452,0,3830.322580645161,0,4832.58064516129,0,4099.354838709678,0,4275.4838709677415,0,4107.419354838709,0,3988.3870967741937,0,4033.8709677419356,0,0,0,?
2018-06-06 11:46:27.867640,4081.2903225806454,0,3993.548387096774,0,4042.2580645161293,0,4126.129032258064,0,4140.322580645161,0,4081.935483870968,0,4157.41935483871,0,3820.967741935484,0,4725.4838709677415,0,3990.645161290323,0,4317.419354838709,0,4019.3548387096776,0,4077.7419354838707,0,4070.0,0,0,0,?
2018-06-06 11:46:27.875641,4023.225806451613,0,3988.3870967741937,0,3957.741935483871,0,4133.548387096775,0,4098.064516129032,0,4090.0,0,4163.870967741936,0,3839.354838709677,0,4624.193548387097,0,3985.8064516129034,0,4281.290322580645,0,4011.935483870968,0,4047.0967741935488,0,4042.2580645161293,0,0,0,?
2018-06-06 11:46:27.895643,4035.483870967742,0,4049.0322580645166,0,3984.8387096774195,0,4100.0,0,4103.548387096775,0,4107.741935483871,0,4124.8387096774195,0,3899.032258064516,0,4358.709677419355,0,4028.0645161290327,0,4361.612903225806,0,4166.774193548387,0,3887.4193548387098,0,4030.3225806451615,0,0,0,?
2018-06-06 11:46:27.923646,4033.8709677419356,0,4109.677419354839,0,4010.0,0,4144.8387096774195,0,4138.064516129032,0,4115.806451612903,0,4158.709677419355,0,3939.6774193548385,0,4272.903225806452,0,4031.2903225806454,0,4367.419354838709,0,4117.419354838709,0,4080.645161290323,0,4105.1612903225805,0,0,0,?
2018-06-06 11:46:27.923646,4061.935483870968,0,4126.774193548387,0,3993.8709677419356,0,4113.548387096775,0,4113.870967741936,0,4099.032258064516,0,4175.1612903225805,0,3956.7741935483873,0,3964.193548387097,0,4102.258064516129,0,4313.225806451613,0,4117.41935483871,0,4051.612903225807,0,4046.451612903226,0,0,0,?
2018-06-06 11:46:27.933647,4040.967741935484,0,4134.8387096774195,0,3950.6451612903224,0,4145.4838709677415,0,4147.41935483871,0,4103.225806451613,0,4209.354838709677,0,3970.645161290323,0,3814.516129032258,0,4111.290322580646,0,4344.5161290322585,0,4168.709677419354,0,4010.645161290323,0,4041.2903225806454,0,0,0,?
2018-06-06 11:46:27.933647,4040.967741935484,0,4134.8387096774195,0,3950.6451612903224,0,4145.4838709677415,0,4147.41935483871,0,4103.225806451613,0,4209.354838709677,0,3970.645161290323,0,3814.516129032258,0,4111.290322580646,0,4344.5161290322585,0,4168.709677419354,0,4010.645161290323,0,4041.2903225806454,0,0,0,?
2018-06-06 11:46:27.933647,4038.3870967741937,0,4255.1612903225805,0,3950.967741935484,0,4100.322580645162,0,4142.258064516129,0,4098.064516129032,0,4202.903225806452,0,4040.0,0,3632.5806451612902,0,4044.1935483870966,0,4356.129032258065,0,4207.096774193548,0,4039.3548387096776,0,4030.3225806451615,0,0,0,?
2018-06-06 11:46:27.933647,4041.2903225806454,0,4212.580645161291,0,3968.709677419355,0,4178.387096774194,0,4170.645161290323,0,4153.870967741936,0,4231.935483870968,0,4064.5161290322585,0,3524.516129032258,0,4026.451612903226,0,4380.322580645162,0,4207.096774193548,0,4052.2580645161293,0,4046.451612903226,0,0,0,?
2018-06-06 11:46:27.933647,4070.0,0,4225.4838709677415,0,3972.2580645161293,0,4169.354838709678,0,4157.419354838709,0,4145.806451612903,0,4205.806451612903,0,4061.612903225807,0,3444.8387096774195,0,4057.0967741935483,0,4374.5161290322585,0,4170.322580645161,0,4063.8709677419356,0,4063.548387096774,0,0,0,?
2018-06-06 11:46:27.944648,4070.967741935484,0,4232.580645161291,0,3932.9032258064517,0,4175.806451612903,0,4200.967741935484,0,4181.290322580645,0,4266.129032258065,0,4097.096774193548,0,3323.548387096774,0,4058.7096774193546,0,4384.5161290322585,0,4178.064516129032,0,4040.967741935484,0,4055.1612903225805,0,0,0,?
2018-06-06 11:46:27.973651,4114.516129032258,0,4218.709677419354,0,3907.4193548387098,0,4163.548387096775,0,4190.967741935484,0,4185.806451612903,0,4215.806451612903,0,4102.258064516129,0,3219.3548387096776,0,4095.483870967742,0,4429.032258064516,0,4173.548387096775,0,4067.0967741935483,0,4069.3548387096776,0,0,0,?
2018-06-06 11:46:27.973651,4124.193548387097,0,4230.0,0,3952.9032258064517,0,4163.548387096775,0,4199.354838709677,0,4205.1612903225805,0,4262.258064516129,0,4146.774193548387,0,3187.0967741935483,0,4083.225806451613,0,4420.322580645161,0,4133.548387096775,0,4067.7419354838707,0,4067.4193548387098,0,0,0,?
2018-06-06 11:46:27.973651,4100.0,0,4219.354838709678,0,3938.064516129032,0,4205.1612903225805,0,4232.58064516129,0,4180.967741935484,0,4258.709677419355,0,4164.8387096774195,0,3097.741935483871,0,4144.8387096774195,0,4459.354838709677,0,4205.1612903225805,0,4133.548387096775,0,4092.9032258064517,0,0,0,?
2018-06-06 11:46:27.973651,4160.645161290323,0,4227.096774193549,0,3977.741935483871,0,4223.548387096774,0,4227.419354838709,0,4230.645161290322,0,4270.967741935484,0,4195.806451612903,0,3125.483870967742,0,4114.193548387097,0,4465.8064516129025,0,4164.516129032258,0,4140.0,0,4130.645161290323,0,0,0,?
2018-06-06 11:46:27.991653,4168.709677419355,0,4194.1935483870975,0,3992.2580645161293,0,4235.4838709677415,0,4228.709677419355,0,4231.935483870968,0,4286.774193548387,0,4200.645161290322,0,3120.645161290323,0,4129.354838709678,0,4474.838709677419,0,4189.354838709677,0,4123.870967741936,0,4109.677419354839,0,0,0,?
2018-06-06 11:46:27.991653,4150.0,0,4178.709677419354,0,3991.2903225806454,0,4236.451612903225,0,4270.645161290323,0,4188.709677419354,0,4300.0,0,4167.741935483871,0,3139.6774193548385,0,4131.935483870968,0,4431.935483870968,0,4180.0,0,4138.709677419355,0,4148.709677419355,0,0,0,?
2018-06-06 11:46:28.001654,4177.419354838709,0,4177.74193548387,0,4009.0322580645166,0,4235.1612903225805,0,4239.677419354839,0,4179.677419354838,0,4305.1612903225805,0,4153.225806451613,0,3188.7096774193546,0,4145.806451612903,0,4429.677419354839,0,4180.967741935484,0,4134.8387096774195,0,4173.548387096775,0,0,0,?
2018-06-06 11:46:28.007654,4162.903225806452,0,4205.1612903225805,0,4014.516129032258,0,4189.354838709677,0,4238.064516129033,0,4165.483870967742,0,4280.322580645162,0,4143.870967741936,0,3214.516129032258,0,4154.8387096774195,0,4409.677419354839,0,4174.193548387097,0,4142.258064516129,0,4153.548387096775,0,0,0,?
2018-06-06 11:46:28.012655,4153.225806451613,0,4117.741935483871,0,3962.2580645161293,0,4235.1612903225805,0,4234.193548387097,0,4103.870967741936,0,4245.806451612903,0,4139.354838709677,0,3170.967741935484,0,4132.258064516129,0,4427.741935483871,0,4140.0,0,4127.096774193548,0,4100.322580645162,0,0,0,?
2018-06-06 11:46:28.025656,4187.096774193548,0,4070.3225806451615,0,3941.935483870968,0,4248.064516129033,0,4182.903225806452,0,4043.225806451613,0,4181.935483870968,0,4074.8387096774195,0,3130.967741935484,0,4073.548387096774,0,4402.903225806452,0,4025.8064516129034,0,4127.096774193548,0,4173.870967741936,0,0,0,?
2018-06-06 11:46:28.047658,4171.612903225807,0,4141.935483870968,0,4091.6129032258063,0,4240.645161290323,0,4168.709677419355,0,4068.0645161290327,0,4164.8387096774195,0,4066.1290322580644,0,3126.7741935483873,0,4008.064516129032,0,4365.1612903225805,0,3932.9032258064517,0,4263.548387096774,0,4140.322580645161,0,0,0,?
2018-06-06 11:46:28.047658,4107.096774193548,0,4275.806451612903,0,4036.1290322580644,0,4226.129032258064,0,4169.677419354839,0,4102.580645161291,0,4167.741935483871,0,4060.3225806451615,0,3138.0645161290327,0,4009.032258064516,0,4343.225806451613,0,4000.645161290323,0,4105.1612903225805,0,4145.806451612903,0,0,0,?
2018-06-06 11:46:28.069661,4195.1612903225805,0,4003.225806451613,0,4024.516129032258,0,4234.8387096774195,0,4186.129032258064,0,4149.354838709677,0,4201.290322580646,0,4065.1612903225805,0,3172.2580645161293,0,4044.5161290322585,0,4306.774193548387,0,4188.709677419355,0,4128.064516129032,0,4096.451612903225,0,0,0,?
2018-06-06 11:46:28.070661,4138.064516129032,0,4169.354838709677,0,4080.3225806451615,0,4231.290322580645,0,4144.516129032258,0,4206.774193548386,0,4190.322580645161,0,4092.5806451612907,0,3261.6129032258063,0,4087.0967741935488,0,4328.064516129032,0,4213.225806451613,0,4111.612903225807,0,4086.7741935483873,0,0,0,?
2018-06-06 11:46:28.070661,4143.225806451613,0,4209.677419354838,0,4073.225806451613,0,4339.354838709677,0,4186.774193548387,0,4231.612903225806,0,4204.8387096774195,0,4101.935483870968,0,3338.3870967741937,0,4099.677419354839,0,4339.354838709677,0,4163.225806451613,0,4097.741935483871,0,4132.258064516129,0,0,0,?
2018-06-06 11:46:28.070661,4207.741935483871,0,4259.032258064516,0,4208.387096774193,0,4301.935483870968,0,4193.870967741936,0,4233.225806451613,0,4282.903225806452,0,4170.645161290323,0,3304.516129032258,0,4163.225806451613,0,4436.129032258064,0,4163.548387096774,0,4196.451612903225,0,4239.032258064516,0,0,0,?
2018-06-06 11:46:28.075661,4226.129032258064,0,4230.645161290323,0,4152.903225806452,0,4320.322580645161,0,4234.516129032258,0,4230.0,0,4260.322580645162,0,4143.225806451613,0,3345.161290322581,0,4225.4838709677415,0,4406.129032258064,0,4178.709677419354,0,4202.258064516129,0,4233.870967741936,0,0,0,?
2018-06-06 11:46:28.086662,4231.935483870968,0,4207.741935483871,0,4103.548387096775,0,4327.419354838709,0,4182.58064516129,0,4248.064516129033,0,4237.096774193548,0,4130.0,0,3420.6451612903224,0,4175.806451612903,0,4384.1935483870975,0,4196.451612903225,0,4168.387096774193,0,4179.032258064516,0,0,0,?
2018-06-06 11:46:28.119666,4217.096774193548,0,4199.032258064516,0,4136.451612903226,0,4311.290322580645,0,4226.774193548386,0,4260.645161290323,0,4290.0,0,4181.935483870968,0,3591.6129032258063,0,4215.1612903225805,0,4370.967741935484,0,4213.225806451613,0,4189.354838709677,0,4195.4838709677415,0,0,0,?
2018-06-06 11:46:28.119666,4190.967741935484,0,4132.258064516129,0,4141.612903225807,0,4299.032258064516,0,4187.096774193548,0,4227.096774193548,0,4244.8387096774195,0,4141.612903225807,0,3685.1612903225805,0,4156.129032258064,0,4290.322580645161,0,4161.935483870968,0,4140.645161290323,0,4173.548387096775,0,0,0,?
2018-06-06 11:46:28.119666,4205.1612903225805,0,4100.0,0,4110.322580645162,0,4301.612903225807,0,4164.193548387097,0,4222.58064516129,0,4252.25806451613,0,4118.387096774193,0,3789.354838709677,0,4161.935483870968,0,4307.419354838709,0,4196.129032258064,0,4163.225806451613,0,4185.1612903225805,0,0,0,?
2018-06-06 11:46:28.119666,4211.290322580645,0,4068.7096774193546,0,4131.290322580645,0,4287.096774193548,0,4150.967741935484,0,4214.193548387097,0,4264.1935483870975,0,4102.903225806452,0,4269.677419354839,0,4132.580645161291,0,4302.580645161291,0,4190.645161290323,0,4168.387096774194,0,4203.870967741936,0,0,0,?
2018-06-06 11:46:28.164670,4197.096774193548,0,4111.935483870968,0,4145.1612903225805,0,4267.741935483871,0,4178.387096774194,0,4200.322580645161,0,4260.645161290323,0,4066.451612903226,0,4419.032258064516,0,4151.612903225807,0,4290.645161290323,0,4186.774193548387,0,4174.8387096774195,0,4209.677419354839,0,0,0,?
2018-06-06 11:46:28.164670,4178.064516129032,0,4100.967741935484,0,4176.451612903225,0,4518.709677419355,0,4115.483870967742,0,4193.225806451613,0,4231.935483870968,0,4016.451612903226,0,4976.129032258064,0,4172.580645161291,0,4272.903225806452,0,4187.741935483871,0,4138.064516129032,0,4167.419354838709,0,0,0,?
2018-06-06 11:46:28.164670,4198.387096774194,0,4011.2903225806454,0,4140.645161290323,0,4493.225806451613,0,4134.8387096774195,0,4180.322580645161,0,4237.419354838709,0,4007.0967741935483,0,5364.5161290322585,0,4156.451612903225,0,4238.387096774194,0,4167.096774193548,0,4207.096774193548,0,4225.806451612903,0,0,0,?
2018-06-06 11:46:28.175671,4207.741935483871,0,4060.6451612903224,0,4158.064516129032,0,4508.064516129032,0,4140.0,0,4191.290322580645,0,4239.032258064516,0,4050.0,0,5461.290322580645,0,4173.548387096775,0,4270.322580645162,0,4174.8387096774195,0,4193.225806451613,0,4209.677419354839,0,0,0,?
2018-06-06 11:46:28.175671,4146.774193548387,0,4001.6129032258063,0,4095.8064516129034,0,4499.677419354839,0,4081.2903225806454,0,4167.741935483871,0,4190.0,0,3995.8064516129034,0,5516.774193548387,0,4166.774193548387,0,4194.8387096774195,0,4177.41935483871,0,4192.258064516129,0,4197.741935483871,0,0,0,?
2018-06-06 11:46:28.175671,4175.1612903225805,0,4102.258064516129,0,4100.322580645162,0,4515.806451612903,0,4098.709677419355,0,4162.258064516129,0,4216.129032258064,0,4026.7741935483873,0,5547.41935483871,0,4209.354838709678,0,4196.129032258064,0,4174.193548387097,0,4140.0,0,4164.8387096774195,0,0,0,?
2018-06-06 11:46:28.175671,4205.4838709677415,0,4068.709677419355,0,4177.096774193548,0,4457.096774193548,0,4146.451612903225,0,4176.129032258064,0,4225.806451612903,0,4019.0322580645166,0,4946.451612903225,0,4172.903225806452,0,4168.064516129032,0,4152.903225806452,0,4138.064516129032,0,4200.0,0,0,0,?
2018-06-06 11:46:28.175671,4105.483870967742,0,4178.387096774194,0,4140.0,0,4454.8387096774195,0,4118.064516129032,0,4167.096774193548,0,4205.4838709677415,0,4053.8709677419356,0,4561.290322580645,0,4159.354838709678,0,4228.387096774193,0,4208.709677419355,0,4169.032258064516,0,4063.225806451613,0,0,0,?
2018-06-06 11:46:28.198673,4210.645161290322,0,4115.806451612903,0,4153.870967741936,0,4459.032258064516,0,4123.225806451613,0,4165.1612903225805,0,4176.451612903225,0,4066.1290322580644,0,4207.096774193548,0,4151.612903225807,0,4200.0,0,4120.0,0,4185.806451612903,0,4125.1612903225805,0,0,0,?
2018-06-06 11:46:28.198673,4355.483870967742,0,3975.8064516129034,0,4041.2903225806454,0,4437.096774193548,0,4107.096774193548,0,4171.290322580645,0,4224.516129032258,0,4047.4193548387098,0,3790.967741935484,0,4020.3225806451615,0,4347.41935483871,0,4010.3225806451615,0,4255.806451612903,0,4133.225806451613,0,0,0,?
2018-06-06 11:46:28.210675,4151.935483870968,0,4174.8387096774195,0,4129.032258064516,0,4459.354838709677,0,4098.064516129032,0,4166.129032258064,0,4209.677419354838,0,4048.0645161290327,0,3569.032258064516,0,4097.096774193548,0,4168.709677419355,0,4159.677419354839,0,4204.1935483870975,0,3968.3870967741937,0,0,0,?
2018-06-06 11:46:28.210675,3977.4193548387098,0,4407.41935483871,0,4308.064516129032,0,4456.451612903225,0,4123.870967741936,0,4160.322580645161,0,4194.516129032258,0,4059.677419354839,0,3478.3870967741937,0,4297.096774193548,0,4000.0,0,4274.5161290322585,0,4092.9032258064517,0,3913.8709677419356,0,0,0,?
2018-06-06 11:46:28.237677,4277.096774193548,0,4093.548387096774,0,4089.677419354839,0,4406.774193548387,0,4173.225806451613,0,4181.290322580645,0,4242.258064516129,0,4132.258064516129,0,3473.548387096774,0,4273.548387096774,0,4125.806451612903,0,4364.193548387097,0,4166.451612903226,0,4130.0,0,0,0,?
2018-06-06 11:46:28.237677,4170.0,0,4266.451612903226,0,4178.064516129032,0,4416.774193548387,0,4168.709677419354,0,4206.451612903225,0,4229.032258064516,0,4130.645161290323,0,3465.1612903225805,0,4217.741935483871,0,4108.387096774194,0,4292.903225806452,0,4119.354838709677,0,4100.0,0,0,0,?
2018-06-06 11:46:28.248678,4188.064516129032,0,4239.354838709678,0,4204.516129032258,0,4432.903225806452,0,4208.387096774193,0,4207.74193548387,0,4227.741935483871,0,4153.225806451613,0,3547.741935483871,0,4185.806451612903,0,4153.548387096775,0,4290.645161290323,0,4132.258064516129,0,4079.032258064516,0,0,0,?
2018-06-06 11:46:28.248678,4164.516129032258,0,4283.548387096775,0,4168.387096774193,0,4391.290322580645,0,4209.032258064516,0,4208.064516129032,0,4237.41935483871,0,4130.322580645161,0,3544.1935483870966,0,4189.677419354839,0,4158.064516129032,0,4245.806451612903,0,4106.451612903226,0,4116.129032258064,0,0,0,?
2018-06-06 11:46:28.259680,4109.032258064516,0,4222.903225806452,0,4104.5161290322585,0,4382.258064516129,0,4187.419354838709,0,4191.935483870968,0,4201.935483870968,0,4170.0,0,3549.032258064516,0,4207.096774193548,0,4170.0,0,4214.193548387097,0,4112.903225806452,0,4077.0967741935488,0,0,0,?
2018-06-06 11:46:28.280682,4110.322580645162,0,4207.741935483871,0,4062.9032258064517,0,4387.096774193548,0,4201.290322580645,0,4193.870967741936,0,4228.064516129033,0,4178.387096774193,0,3549.354838709677,0,4164.193548387097,0,4162.903225806452,0,4189.354838709677,0,4090.0,0,4107.41935483871,0,0,0,?
2018-06-06 11:46:28.280682,4133.870967741936,0,4201.935483870968,0,4050.6451612903224,0,4336.129032258065,0,4218.064516129032,0,4197.096774193549,0,4246.451612903226,0,4204.193548387097,0,3566.7741935483873,0,4191.612903225806,0,4208.709677419355,0,4235.806451612903,0,4123.548387096775,0,4086.7741935483873,0,0,0,?
2018-06-06 11:46:28.281682,4140.645161290323,0,4201.290322580646,0,4070.6451612903224,0,4071.935483870968,0,4209.677419354839,0,4228.387096774194,0,4246.451612903226,0,4191.612903225806,0,3613.8709677419356,0,4220.967741935484,0,4218.709677419354,0,4200.645161290323,0,4120.967741935484,0,4112.258064516129,0,0,0,?
2018-06-06 11:46:28.281682,4166.774193548387,0,4242.25806451613,0,4071.935483870968,0,4090.645161290323,0,4224.8387096774195,0,4221.935483870968,0,4234.5161290322585,0,4217.419354838709,0,3582.9032258064517,0,4208.387096774194,0,4205.806451612903,0,4212.580645161291,0,4132.258064516129,0,4138.064516129032,0,0,0,?
2018-06-06 11:46:28.293683,4235.1612903225805,0,4252.580645161291,0,4141.935483870968,0,4075.8064516129034,0,4261.935483870968,0,4264.1935483870975,0,4291.612903225807,0,4239.032258064516,0,3718.064516129032,0,4262.258064516129,0,4238.064516129032,0,4273.548387096775,0,4201.935483870968,0,4227.096774193548,0,0,0,?
2018-06-06 11:46:28.298683,4227.741935483871,0,4255.1612903225805,0,4141.935483870968,0,4065.1612903225805,0,4304.193548387097,0,4255.1612903225805,0,4289.677419354839,0,4243.225806451613,0,3808.064516129032,0,4285.483870967742,0,4269.032258064516,0,4298.387096774194,0,4191.612903225806,0,4226.774193548387,0,0,0,?
2018-06-06 11:46:28.319686,4234.193548387097,0,4272.903225806452,0,4143.225806451613,0,4077.7419354838707,0,4294.8387096774195,0,4240.645161290323,0,4301.935483870968,0,4270.0,0,4089.3548387096776,0,4305.1612903225805,0,4288.064516129032,0,4273.548387096774,0,4205.483870967742,0,4244.193548387097,0,0,0,?
2018-06-06 11:46:28.334687,4222.903225806452,0,4071.2903225806454,0,4070.6451612903224,0,4426.774193548386,0,4153.225806451613,0,4186.774193548387,0,4172.580645161291,0,4128.064516129032,0,3871.9354838709673,0,4133.548387096775,0,4178.064516129032,0,4145.1612903225805,0,4170.322580645161,0,4174.8387096774195,0,0,0,?
2018-06-06 11:46:28.334687,4117.41935483871,0,4067.0967741935483,0,4009.032258064516,0,4444.516129032258,0,4123.870967741936,0,4179.677419354839,0,4154.8387096774195,0,4146.129032258064,0,3683.8709677419356,0,4199.354838709677,0,4126.129032258064,0,4154.516129032258,0,4070.967741935484,0,4094.5161290322585,0,0,0,?
2018-06-06 11:46:28.334687,4239.677419354838,0,3957.4193548387098,0,4020.6451612903224,0,4416.129032258064,0,4177.741935483871,0,4198.709677419355,0,4183.548387096775,0,4122.903225806452,0,3664.193548387097,0,4169.354838709678,0,4191.612903225806,0,4102.580645161291,0,4165.806451612903,0,4172.903225806452,0,0,0,?
2018-06-06 11:46:28.334687,4220.967741935484,0,4086.7741935483873,0,4073.8709677419356,0,4414.5161290322585,0,4160.645161290323,0,4209.677419354839,0,4190.0,0,4160.645161290323,0,3629.677419354839,0,4249.677419354839,0,4122.580645161291,0,4099.032258064516,0,4129.677419354839,0,4157.419354838709,0,0,0,?
2018-06-06 11:46:28.377691,4169.032258064516,0,4087.0967741935483,0,4196.129032258064,0,4376.129032258065,0,4146.774193548387,0,4195.4838709677415,0,4183.548387096775,0,4135.1612903225805,0,3552.2580645161293,0,4306.129032258064,0,4131.935483870968,0,4356.774193548387,0,4070.0,0,4090.645161290323,0,0,0,?
2018-06-06 11:46:28.389693,4303.548387096774,0,3994.1935483870966,0,4036.7741935483873,0,4331.935483870968,0,4134.193548387097,0,4196.774193548386,0,4174.8387096774195,0,4145.1612903225805,0,3559.032258064516,0,4294.8387096774195,0,4159.354838709678,0,4316.774193548386,0,4118.387096774194,0,4184.193548387097,0,0,0,?
2018-06-06 11:46:28.389693,4048.3870967741937,0,4254.5161290322585,0,4144.516129032258,0,4352.580645161291,0,4135.1612903225805,0,4205.1612903225805,0,4161.290322580645,0,4158.387096774194,0,3549.354838709677,0,4259.677419354839,0,4144.516129032258,0,4294.5161290322585,0,4128.064516129032,0,4107.41935483871,0,0,0,?
2018-06-06 11:46:28.389693,4130.645161290323,0,4195.806451612903,0,4143.548387096775,0,4338.387096774193,0,4164.5161290322585,0,4184.516129032258,0,4174.516129032258,0,4138.709677419355,0,3574.8387096774195,0,4278.064516129032,0,4103.225806451613,0,4265.4838709677415,0,4106.451612903226,0,4076.451612903226,0,0,0,?
2018-06-06 11:46:28.390693,4127.096774193548,0,4262.903225806452,0,4147.419354838709,0,4345.4838709677415,0,4135.1612903225805,0,4196.129032258064,0,4156.774193548387,0,4162.903225806452,0,3563.225806451613,0,4249.354838709678,0,4140.645161290323,0,4283.548387096774,0,4138.064516129032,0,4106.129032258064,0,0,0,?
2018-06-06 11:46:28.390693,4101.290322580646,0,4265.483870967742,0,4146.451612903225,0,4335.4838709677415,0,4145.1612903225805,0,4191.612903225806,0,4202.903225806452,0,4178.709677419355,0,3590.0,0,4236.774193548386,0,4136.129032258064,0,4295.1612903225805,0,4119.677419354839,0,4115.806451612903,0,0,0,?
2018-06-06 11:46:28.390693,4142.903225806452,0,4251.290322580646,0,4111.935483870968,0,4299.677419354838,0,4176.129032258064,0,4195.4838709677415,0,4172.580645161291,0,4190.322580645161,0,3623.548387096774,0,4204.8387096774195,0,4210.645161290323,0,4265.806451612903,0,4147.41935483871,0,4102.903225806452,0,0,0,?
2018-06-06 11:46:28.399694,4172.580645161291,0,4270.0,0,4163.225806451613,0,4340.322580645161,0,4176.774193548387,0,4197.096774193548,0,4207.741935483871,0,4184.193548387097,0,3641.935483870968,0,4183.225806451613,0,4171.935483870968,0,4222.903225806452,0,4158.387096774194,0,4141.935483870968,0,0,0,?
2018-06-06 11:46:28.410695,4118.064516129032,0,4239.677419354838,0,4120.0,0,4308.709677419355,0,4176.129032258064,0,4176.774193548386,0,4198.064516129032,0,4167.096774193548,0,3648.387096774193,0,4155.806451612903,0,4161.935483870968,0,4229.354838709677,0,4098.387096774194,0,4144.193548387097,0,0,0,?
2018-06-06 11:46:28.422696,4187.741935483871,0,4261.612903225807,0,4128.709677419355,0,3951.2903225806454,0,4202.903225806452,0,4230.645161290322,0,4192.258064516129,0,4221.935483870968,0,3760.322580645161,0,4224.516129032258,0,4240.0,0,4184.8387096774195,0,4149.677419354839,0,4166.451612903225,0,0,0,?
2018-06-06 11:46:28.458699,4230.0,0,4236.451612903225,0,4107.41935483871,0,4015.161290322581,0,4197.096774193549,0,4216.451612903226,0,4227.41935483871,0,4202.25806451613,0,3893.225806451613,0,4220.967741935484,0,4264.5161290322585,0,4212.903225806452,0,4168.709677419354,0,4204.5161290322585,0,0,0,?
2018-06-06 11:46:28.458699,4237.74193548387,0,4235.4838709677415,0,4105.483870967742,0,4022.9032258064517,0,4241.935483870968,0,4218.064516129033,0,4216.451612903226,0,4236.451612903225,0,4066.129032258065,0,4262.903225806452,0,4295.806451612903,0,4240.322580645162,0,4230.967741935484,0,4211.290322580645,0,0,0,?
2018-06-06 11:46:28.458699,4233.870967741936,0,4222.580645161291,0,4159.354838709677,0,4013.548387096774,0,4203.548387096775,0,4227.41935483871,0,4266.774193548387,0,4200.967741935484,0,4296.451612903225,0,4259.677419354839,0,4305.4838709677415,0,4247.096774193548,0,4237.41935483871,0,4247.41935483871,0,0,0,?
2018-06-06 11:46:28.459700,4233.870967741936,0,4222.25806451613,0,4174.193548387097,0,4019.3548387096776,0,4224.5161290322585,0,4220.322580645162,0,4261.290322580646,0,4235.1612903225805,0,4438.387096774193,0,4253.548387096775,0,4316.451612903225,0,4267.741935483871,0,4224.1935483870975,0,4248.387096774194,0,0,0,?
2018-06-06 11:46:28.459700,4241.935483870968,0,4190.967741935484,0,4172.258064516129,0,4045.483870967742,0,4211.612903225806,0,4238.064516129032,0,4240.967741935484,0,4225.1612903225805,0,4812.258064516129,0,4256.451612903226,0,4333.870967741936,0,4257.096774193548,0,4207.41935483871,0,4271.290322580646,0,0,0,?
2018-06-06 11:46:28.459700,4240.967741935484,0,4183.870967741936,0,4162.903225806452,0,4063.8709677419356,0,4232.58064516129,0,4230.967741935484,0,4223.225806451614,0,4165.4838709677415,0,5224.193548387097,0,4242.258064516129,0,4295.1612903225805,0,4234.8387096774195,0,4207.741935483871,0,4296.129032258064,0,0,0,?
2018-06-06 11:46:28.487702,4245.1612903225805,0,4162.903225806452,0,4170.967741935484,0,4068.3870967741937,0,4234.516129032258,0,4241.290322580645,0,4232.25806451613,0,4172.58064516129,0,5443.225806451613,0,4233.870967741936,0,4262.258064516129,0,4227.41935483871,0,4208.387096774194,0,4248.387096774194,0,0,0,?
2018-06-06 11:46:28.487702,4169.677419354838,0,4136.451612903225,0,4067.4193548387098,0,4079.677419354839,0,4137.096774193548,0,4200.967741935484,0,4153.548387096775,0,4145.806451612903,0,5455.1612903225805,0,4199.677419354839,0,4217.419354838709,0,4193.548387096775,0,4185.806451612903,0,4253.225806451613,0,0,0,?
2018-06-06 11:46:28.497703,4130.322580645162,0,4100.322580645161,0,4079.3548387096776,0,4170.322580645161,0,4127.096774193548,0,4148.064516129032,0,4139.677419354839,0,4096.129032258064,0,5081.290322580646,0,4139.677419354839,0,4146.774193548387,0,4129.677419354839,0,4138.064516129032,0,4129.032258064516,0,0,0,?
2018-06-06 11:46:28.498703,4130.322580645162,0,4100.322580645161,0,4079.3548387096776,0,4170.322580645161,0,4127.096774193548,0,4148.064516129032,0,4139.677419354839,0,4096.129032258064,0,5081.290322580646,0,4139.677419354839,0,4146.774193548387,0,4129.677419354839,0,4138.064516129032,0,4129.032258064516,0,0,0,?
2018-06-06 11:46:28.503704,4038.064516129032,0,4133.870967741936,0,4087.0967741935483,0,4200.645161290322,0,4073.8709677419356,0,4147.41935483871,0,4096.451612903225,0,4114.8387096774195,0,4513.548387096775,0,4085.1612903225805,0,4169.032258064516,0,4053.548387096774,0,4179.354838709677,0,4008.3870967741937,0,0,0,?
2018-06-06 11:46:28.509705,4165.483870967742,0,4015.483870967742,0,4079.3548387096776,0,4172.258064516129,0,4067.0967741935483,0,4131.935483870968,0,4131.612903225807,0,4101.935483870968,0,4420.0,0,4118.064516129032,0,4151.935483870968,0,4049.677419354839,0,4176.451612903226,0,4130.0,0,0,0,?
2018-06-06 11:46:28.534707,4237.74193548387,0,4002.5806451612902,0,4015.8064516129034,0,4202.258064516129,0,4106.129032258064,0,4133.548387096775,0,4118.387096774193,0,4141.612903225807,0,4013.2258064516127,0,4068.709677419355,0,4301.612903225806,0,4032.5806451612902,0,4274.5161290322585,0,4186.451612903225,0,0,0,?
2018-06-06 11:46:28.540708,4113.225806451613,0,4066.1290322580644,0,4061.612903225807,0,4156.451612903225,0,4101.290322580645,0,4178.064516129032,0,4139.354838709677,0,4124.8387096774195,0,3927.0967741935483,0,4137.096774193548,0,4176.774193548386,0,4072.258064516129,0,4288.709677419355,0,4161.935483870968,0,0,0,?
2018-06-06 11:46:28.541708,4177.096774193548,0,4133.548387096775,0,4087.4193548387098,0,4170.645161290323,0,4080.0,0,4133.870967741936,0,4145.806451612903,0,4137.41935483871,0,3910.0,0,4161.290322580645,0,4216.129032258065,0,4111.935483870968,0,4370.645161290322,0,4165.806451612903,0,0,0,?
2018-06-06 11:46:28.541708,4147.741935483871,0,4110.0,0,4111.935483870968,0,4132.258064516129,0,4140.967741935484,0,4183.225806451613,0,4130.967741935484,0,4181.612903225807,0,3848.7096774193546,0,4314.8387096774195,0,4227.096774193549,0,4215.806451612903,0,4235.483870967742,0,4119.032258064516,0,0,0,?
2018-06-06 11:46:28.548708,4219.677419354839,0,4059.6774193548385,0,4032.2580645161293,0,4142.258064516129,0,4120.967741935484,0,4148.387096774193,0,4149.677419354839,0,4146.774193548387,0,3812.2580645161293,0,4215.161290322581,0,4277.741935483871,0,4182.58064516129,0,4340.322580645161,0,4175.1612903225805,0,0,0,?
2018-06-06 11:46:28.569711,4071.6129032258063,0,4286.774193548387,0,4168.709677419355,0,4104.5161290322585,0,4126.774193548387,0,4140.645161290323,0,4105.483870967742,0,4139.677419354839,0,3815.483870967742,0,4266.129032258064,0,4174.8387096774195,0,4323.870967741936,0,4108.387096774194,0,4060.645161290323,0,0,0,?
2018-06-06 11:46:28.579712,4123.870967741936,0,4241.612903225807,0,4125.4838709677415,0,4101.935483870968,0,4146.129032258064,0,4129.032258064516,0,4114.5161290322585,0,4128.387096774194,0,3801.9354838709673,0,4268.709677419355,0,4198.709677419355,0,4243.548387096775,0,4236.774193548386,0,4127.41935483871,0,0,0,?
2018-06-06 11:46:28.579712,4074.8387096774195,0,4073.8709677419356,0,3982.2580645161293,0,4103.870967741936,0,4097.41935483871,0,4116.774193548387,0,4110.645161290323,0,4130.967741935484,0,3855.483870967742,0,4102.258064516129,0,4012.9032258064517,0,4202.25806451613,0,4106.451612903225,0,4081.6129032258063,0,0,0,?
2018-06-06 11:46:28.579712,4055.1612903225805,0,4081.6129032258063,0,3984.193548387097,0,4128.387096774194,0,4109.032258064516,0,4098.387096774194,0,4074.516129032258,0,4126.774193548387,0,3887.0967741935483,0,4069.0322580645166,0,4026.451612903226,0,4161.935483870968,0,4080.3225806451615,0,4066.451612903226,0,0,0,?
2018-06-06 11:46:28.617715,4034.193548387097,0,4056.129032258065,0,3994.193548387097,0,4186.451612903225,0,4109.677419354839,0,4133.225806451613,0,4107.096774193548,0,4159.677419354839,0,3852.9032258064512,0,4101.935483870968,0,4081.2903225806454,0,4163.225806451613,0,4092.5806451612902,0,4077.0967741935488,0,0,0,?
2018-06-06 11:46:28.617715,4092.9032258064517,0,4041.612903225807,0,4006.451612903226,0,4168.064516129032,0,4084.516129032258,0,4099.032258064516,0,4093.548387096774,0,4116.774193548387,0,3901.9354838709673,0,4065.1612903225805,0,4081.612903225807,0,4142.580645161291,0,4109.032258064516,0,4107.419354838709,0,0,0,?
2018-06-06 11:46:28.617715,4079.3548387096776,0,4076.1290322580644,0,4031.6129032258063,0,4137.096774193548,0,4083.8709677419356,0,4135.806451612903,0,4118.709677419355,0,4109.354838709678,0,3923.8709677419356,0,4065.483870967742,0,4072.9032258064517,0,4127.096774193548,0,4100.967741935484,0,4083.2258064516127,0,0,0,?
2018-06-06 11:46:28.617715,4038.709677419355,0,4019.3548387096776,0,4014.8387096774195,0,4140.967741935484,0,4110.322580645161,0,4111.612903225807,0,4120.0,0,4101.935483870968,0,3916.451612903226,0,4067.4193548387098,0,4070.3225806451615,0,4097.41935483871,0,4097.741935483871,0,4124.516129032258,0,0,0,?
2018-06-06 11:46:28.628716,4073.8709677419356,0,4052.9032258064517,0,4069.3548387096776,0,4114.8387096774195,0,4068.3870967741937,0,4136.129032258064,0,4104.516129032258,0,4112.903225806452,0,3952.5806451612907,0,4086.7741935483873,0,4070.0,0,4071.935483870968,0,4075.1612903225805,0,4098.387096774193,0,0,0,?
2018-06-06 11:46:28.633717,4049.0322580645166,0,4064.8387096774195,0,4061.612903225807,0,4277.741935483871,0,4078.064516129032,0,4142.580645161291,0,4109.354838709677,0,4128.387096774194,0,3944.8387096774195,0,4076.1290322580644,0,4084.1935483870966,0,4081.6129032258063,0,4104.193548387097,0,4144.193548387097,0,0,0,?
2018-06-06 11:46:28.633717,4038.0645161290327,0,4010.967741935484,0,4061.2903225806454,0,4478.064516129032,0,4094.8387096774195,0,4143.870967741936,0,4117.419354838709,0,4108.709677419355,0,3961.6129032258063,0,4066.1290322580644,0,4083.548387096774,0,4089.3548387096776,0,4093.548387096774,0,4118.387096774193,0,0,0,?
2018-06-06 11:46:28.656719,4049.677419354839,0,4061.2903225806454,0,4049.677419354839,0,4430.967741935484,0,4064.8387096774195,0,4115.4838709677415,0,4105.4838709677415,0,4146.451612903225,0,4020.0000000000005,0,4123.548387096775,0,4096.774193548387,0,4073.8709677419356,0,4138.387096774193,0,4120.645161290323,0,0,0,?
2018-06-06 11:46:28.662720,4106.451612903226,0,4051.2903225806454,0,4066.7741935483873,0,4428.709677419355,0,4140.967741935484,0,4141.935483870968,0,4123.870967741936,0,4145.483870967742,0,4168.709677419354,0,4102.903225806452,0,4140.967741935484,0,4084.5161290322585,0,4101.612903225807,0,4142.903225806452,0,0,0,?
2018-06-06 11:46:28.668720,4094.5161290322585,0,4060.0,0,4064.516129032258,0,4421.290322580645,0,4111.290322580645,0,4107.41935483871,0,4107.41935483871,0,4111.290322580646,0,4235.806451612903,0,4098.387096774193,0,4104.193548387097,0,4072.9032258064517,0,4097.741935483871,0,4143.870967741936,0,0,0,?
2018-06-06 11:46:28.668720,4120.322580645161,0,4090.3225806451615,0,4134.5161290322585,0,4400.967741935484,0,4141.935483870968,0,4147.41935483871,0,4131.290322580645,0,4130.967741935484,0,4501.612903225806,0,4131.935483870968,0,4160.322580645161,0,4119.032258064516,0,4170.322580645162,0,4190.645161290322,0,0,0,?
2018-06-06 11:46:28.686722,4097.741935483871,0,4096.451612903226,0,4158.064516129032,0,4357.096774193548,0,4112.580645161291,0,4126.774193548387,0,4164.8387096774195,0,4120.322580645162,0,4930.0,0,4133.548387096775,0,4200.967741935484,0,4112.258064516129,0,4188.064516129032,0,4208.064516129032,0,0,0,?
2018-06-06 11:46:28.702724,4114.5161290322585,0,4086.7741935483873,0,4160.967741935484,0,4025.161290322581,0,4160.967741935484,0,4157.741935483871,0,4176.774193548387,0,4139.677419354839,0,5058.064516129032,0,4145.806451612903,0,4226.451612903226,0,4110.645161290323,0,4192.903225806452,0,4236.451612903226,0,0,0,?
2018-06-06 11:46:28.702724,4123.870967741936,0,4076.7741935483873,0,4169.032258064516,0,4048.7096774193546,0,4156.129032258064,0,4163.548387096775,0,4172.903225806452,0,4137.096774193548,0,4878.064516129032,0,4103.225806451613,0,4183.870967741936,0,4112.903225806452,0,4148.064516129032,0,4203.225806451614,0,0,0,?
2018-06-06 11:46:28.702724,4121.935483870968,0,4033.225806451613,0,4125.806451612903,0,4016.7741935483873,0,4146.451612903225,0,4149.032258064516,0,4154.5161290322585,0,4171.935483870968,0,4600.967741935484,0,4078.064516129032,0,4209.677419354839,0,4048.709677419355,0,4136.774193548387,0,4191.290322580645,0,0,0,?
2018-06-06 11:46:28.714725,4038.0645161290327,0,4103.870967741936,0,4110.322580645162,0,4012.9032258064517,0,4146.774193548387,0,4131.935483870968,0,4130.322580645161,0,4146.451612903225,0,4457.74193548387,0,4135.806451612903,0,4188.064516129032,0,4046.451612903226,0,4110.645161290323,0,4147.096774193548,0,0,0,?
2018-06-06 11:46:28.719726,4105.483870967742,0,4113.225806451613,0,4130.322580645162,0,4018.7096774193546,0,4100.0,0,4167.096774193548,0,4139.677419354839,0,4151.935483870968,0,4297.096774193548,0,4130.967741935484,0,4166.774193548387,0,4096.451612903226,0,4120.645161290323,0,4174.193548387097,0,0,0,?
2018-06-06 11:46:28.724726,4136.129032258064,0,4105.483870967742,0,4095.8064516129034,0,4010.0,0,4135.806451612903,0,4124.193548387097,0,4120.0,0,4172.258064516129,0,4202.258064516129,0,4126.774193548387,0,4206.129032258064,0,4079.0322580645166,0,4106.774193548387,0,4240.645161290322,0,0,0,?
2018-06-06 11:46:28.731727,4068.064516129032,0,4258.064516129033,0,4108.064516129032,0,4020.967741935484,0,4122.903225806452,0,4165.1612903225805,0,4130.322580645162,0,4172.258064516129,0,4108.709677419355,0,4080.3225806451615,0,4268.709677419355,0,4014.193548387097,0,4223.870967741936,0,4175.806451612903,0,0,0,?
2018-06-06 11:46:28.753729,4376.451612903226,0,3783.870967741935,0,3981.935483870968,0,3943.548387096774,0,4104.516129032258,0,4174.8387096774195,0,4155.806451612903,0,4141.612903225807,0,3925.4838709677424,0,4072.9032258064517,0,4250.967741935484,0,3941.2903225806454,0,4320.322580645161,0,4409.032258064516,0,0,0,?
2018-06-06 11:46:28.753729,4003.8709677419356,0,4139.032258064516,0,4203.548387096775,0,3950.0,0,4066.7741935483873,0,4135.4838709677415,0,4089.0322580645166,0,4122.903225806452,0,3922.5806451612902,0,4178.064516129032,0,4141.935483870968,0,4152.580645161291,0,4139.032258064516,0,4064.516129032258,0,0,0,?
2018-06-06 11:46:28.753729,4157.41935483871,0,4104.8387096774195,0,4129.354838709678,0,3966.451612903226,0,4081.612903225807,0,4130.0,0,4113.870967741936,0,4147.741935483871,0,3915.483870967742,0,4227.096774193549,0,4205.1612903225805,0,4233.870967741936,0,4148.709677419355,0,4202.258064516129,0,0,0,?
2018-06-06 11:46:28.784732,4157.41935483871,0,4104.8387096774195,0,4129.354838709678,0,3966.451612903226,0,4081.612903225807,0,4130.0,0,4113.870967741936,0,4147.741935483871,0,3915.483870967742,0,4227.096774193549,0,4205.1612903225805,0,4233.870967741936,0,4148.709677419355,0,4202.258064516129,0,0,0,?
2018-06-06 11:46:28.791733,4089.677419354839,0,4270.0,0,4190.322580645161,0,3970.967741935484,0,4071.935483870968,0,4103.225806451613,0,4108.387096774194,0,4131.612903225807,0,3877.0967741935483,0,4267.741935483871,0,4194.193548387097,0,4230.645161290323,0,4166.129032258064,0,4128.064516129032,0,0,0,?
2018-06-06 11:46:28.793733,4109.677419354839,0,4184.8387096774195,0,4080.645161290323,0,3960.3225806451615,0,4110.967741935484,0,4143.225806451613,0,4169.354838709677,0,4167.096774193548,0,3875.1612903225805,0,4281.290322580645,0,4230.0,0,4268.387096774193,0,4209.032258064516,0,4119.032258064516,0,0,0,?
2018-06-06 11:46:28.793733,4078.064516129032,0,4235.161290322581,0,4026.7741935483873,0,3950.967741935484,0,4116.451612903225,0,4140.0,0,4136.129032258064,0,4190.0,0,3900.967741935484,0,4239.354838709678,0,4251.290322580646,0,4240.967741935484,0,4187.096774193548,0,4140.0,0,0,0,?
2018-06-06 11:46:28.793733,4110.0,0,4233.870967741936,0,4011.612903225807,0,3957.741935483871,0,4113.870967741936,0,4175.806451612903,0,4181.290322580645,0,4178.387096774193,0,3858.064516129032,0,4164.193548387097,0,4221.612903225807,0,4234.516129032258,0,4137.741935483871,0,4139.354838709677,0,0,0,?
2018-06-06 11:46:28.810735,4084.1935483870966,0,4212.903225806452,0,3988.0645161290327,0,3986.451612903226,0,4105.1612903225805,0,4150.645161290323,0,4157.419354838709,0,4210.0,0,3897.4193548387093,0,4175.4838709677415,0,4222.903225806452,0,4181.290322580645,0,4139.032258064516,0,4101.612903225807,0,0,0,?
2018-06-06 11:46:28.810735,4110.0,0,4233.870967741936,0,4006.1290322580644,0,3939.677419354839,0,4129.677419354839,0,4152.580645161291,0,4160.967741935484,0,4226.129032258065,0,3888.3870967741937,0,4239.354838709677,0,4265.161290322581,0,4187.419354838709,0,4176.774193548387,0,4132.258064516129,0,0,0,?
2018-06-06 11:46:28.821736,4117.419354838709,0,4200.645161290323,0,4012.5806451612902,0,3946.451612903226,0,4127.741935483871,0,4148.709677419355,0,4148.709677419355,0,4268.387096774194,0,3926.451612903226,0,4216.129032258065,0,4260.967741935484,0,4223.870967741936,0,4180.0,0,4130.322580645162,0,0,0,?
2018-06-06 11:46:28.823736,4115.483870967742,0,4195.483870967742,0,4033.225806451613,0,3927.4193548387098,0,4143.548387096775,0,4130.645161290323,0,4169.032258064516,0,4226.129032258065,0,3903.8709677419356,0,4234.516129032258,0,4233.548387096775,0,4192.903225806452,0,4174.516129032258,0,4171.290322580646,0,0,0,?
2018-06-06 11:46:28.833737,4158.064516129032,0,4220.322580645161,0,4143.548387096775,0,3980.967741935484,0,4136.774193548387,0,4189.032258064516,0,4195.1612903225805,0,4252.903225806452,0,4151.612903225807,0,4205.806451612903,0,4256.774193548387,0,4183.870967741936,0,4199.677419354839,0,4201.612903225807,0,0,0,?
2018-06-06 11:46:28.839738,4099.354838709678,0,4196.451612903225,0,4139.354838709677,0,4062.2580645161293,0,4142.258064516129,0,4150.645161290323,0,4168.709677419355,0,4205.806451612903,0,4356.451612903226,0,4149.354838709678,0,4175.806451612903,0,4137.741935483871,0,4144.193548387097,0,4176.774193548387,0,0,0,?
2018-06-06 11:46:28.860740,4106.129032258064,0,4178.709677419354,0,4176.129032258064,0,4056.1290322580644,0,4132.580645161291,0,4141.290322580646,0,4182.258064516129,0,4196.774193548386,0,4444.838709677419,0,4103.225806451613,0,4170.967741935484,0,4110.322580645162,0,4118.064516129032,0,4174.5161290322585,0,0,0,?
2018-06-06 11:46:28.860740,4107.741935483871,0,4176.451612903226,0,4176.774193548387,0,4113.225806451613,0,4129.032258064516,0,4140.967741935484,0,4100.322580645162,0,4135.806451612903,0,4610.0,0,4084.5161290322585,0,4137.41935483871,0,4076.1290322580644,0,4083.8709677419356,0,4150.322580645161,0,0,0,?
2018-06-06 11:46:28.882742,4097.41935483871,0,4132.903225806452,0,4112.580645161291,0,4177.741935483871,0,4103.870967741936,0,4120.967741935484,0,4170.322580645162,0,4162.903225806452,0,4622.258064516129,0,4081.935483870968,0,4141.935483870968,0,4114.5161290322585,0,4072.5806451612902,0,4166.774193548387,0,0,0,?
2018-06-06 11:46:28.882742,4125.806451612903,0,4120.967741935484,0,4095.8064516129034,0,4237.41935483871,0,4096.774193548387,0,4112.903225806452,0,4129.677419354839,0,4135.1612903225805,0,4666.774193548387,0,4081.935483870968,0,4136.129032258064,0,4076.129032258065,0,4081.935483870968,0,4159.354838709678,0,0,0,?
2018-06-06 11:46:28.882742,4125.806451612903,0,4120.967741935484,0,4095.8064516129034,0,4237.41935483871,0,4096.774193548387,0,4112.903225806452,0,4129.677419354839,0,4135.1612903225805,0,4666.774193548387,0,4081.935483870968,0,4136.129032258064,0,4076.129032258065,0,4081.935483870968,0,4159.354838709678,0,0,0,?
2018-06-06 11:46:28.894743,4111.290322580646,0,4047.4193548387098,0,4082.2580645161293,0,4347.741935483871,0,4092.5806451612902,0,4074.8387096774195,0,4105.483870967742,0,4122.258064516129,0,4766.774193548387,0,4060.645161290323,0,4113.870967741936,0,4040.645161290323,0,4086.7741935483873,0,4109.032258064516,0,0,0,?
2018-06-06 11:46:28.925746,4060.0,0,4016.451612903226,0,4041.2903225806454,0,4494.516129032258,0,4059.677419354839,0,4090.967741935484,0,4114.5161290322585,0,4068.064516129032,0,4644.8387096774195,0,4016.7741935483873,0,4093.5483870967746,0,3976.7741935483873,0,4075.483870967742,0,4092.5806451612907,0,0,0,?
2018-06-06 11:46:28.925746,4064.8387096774195,0,3992.9032258064517,0,4023.548387096774,0,4473.548387096774,0,4081.2903225806454,0,4068.0645161290327,0,4054.8387096774195,0,4080.967741935484,0,4593.548387096774,0,3976.7741935483873,0,4070.645161290323,0,3943.8709677419356,0,4039.0322580645166,0,4038.3870967741937,0,0,0,?
2018-06-06 11:46:28.930747,4046.7741935483873,0,4013.5483870967746,0,4045.1612903225805,0,4483.548387096774,0,4090.3225806451615,0,4073.8709677419356,0,4043.5483870967746,0,4075.8064516129034,0,4567.096774193548,0,3977.4193548387098,0,4086.7741935483873,0,3893.8709677419356,0,4073.548387096774,0,4070.967741935484,0,0,0,?
2018-06-06 11:46:28.930747,4031.2903225806454,0,4063.2258064516127,0,4005.8064516129034,0,4528.387096774194,0,4103.870967741936,0,4071.6129032258063,0,4105.1612903225805,0,4116.129032258064,0,4856.774193548386,0,4014.193548387097,0,4060.967741935484,0,3972.2580645161293,0,4102.258064516129,0,4070.3225806451615,0,0,0,?
2018-06-06 11:46:28.930747,4081.6129032258063,0,3952.9032258064517,0,4005.1612903225805,0,4518.387096774194,0,4101.612903225807,0,4099.677419354839,0,4083.5483870967746,0,4123.225806451613,0,4802.580645161291,0,4028.709677419355,0,4077.0967741935483,0,4004.8387096774195,0,4044.8387096774195,0,4091.935483870968,0,0,0,?
2018-06-06 11:46:28.936747,4185.1612903225805,0,4000.0,0,3973.8709677419356,0,4469.677419354839,0,4085.1612903225805,0,4097.741935483871,0,4090.3225806451615,0,4130.0,0,4799.354838709677,0,3937.741935483871,0,4215.161290322581,0,3926.7741935483873,0,4237.419354838709,0,4140.0,0,0,0,?
2018-06-06 11:46:28.951749,4131.290322580646,0,3982.5806451612907,0,3985.161290322581,0,4473.548387096774,0,4087.741935483871,0,4064.516129032258,0,4069.3548387096776,0,4103.548387096775,0,4711.612903225807,0,4007.7419354838707,0,4110.0,0,4034.8387096774195,0,4116.129032258064,0,4124.5161290322585,0,0,0,?
2018-06-06 11:46:28.951749,3988.0645161290327,0,4154.193548387097,0,4080.967741935484,0,4446.129032258064,0,4084.8387096774195,0,4109.354838709678,0,4063.5483870967746,0,4118.064516129032,0,4597.096774193548,0,4056.451612903226,0,4008.7096774193546,0,4077.741935483871,0,4067.4193548387098,0,4048.7096774193546,0,0,0,?
2018-06-06 11:46:28.985752,4073.548387096774,0,4082.9032258064517,0,4096.774193548387,0,4390.322580645161,0,4082.9032258064517,0,4106.451612903226,0,4071.935483870968,0,4146.129032258064,0,4563.548387096775,0,4046.1290322580644,0,4039.0322580645166,0,4096.451612903226,0,4057.0967741935488,0,4045.1612903225805,0,0,0,?
2018-06-06 11:46:28.985752,4060.645161290323,0,4130.322580645161,0,4095.8064516129034,0,4389.032258064516,0,4081.2903225806454,0,4065.1612903225805,0,4110.967741935484,0,4096.774193548387,0,4526.774193548387,0,4096.774193548387,0,4040.967741935484,0,4080.0,0,4047.0967741935488,0,4081.6129032258063,0,0,0,?
2018-06-06 11:46:28.996753,4060.645161290323,0,4130.322580645161,0,4095.8064516129034,0,4389.032258064516,0,4081.2903225806454,0,4065.1612903225805,0,4110.967741935484,0,4096.774193548387,0,4526.774193548387,0,4096.774193548387,0,4040.967741935484,0,4080.0,0,4047.0967741935488,0,4081.6129032258063,0,0,0,?
2018-06-06 11:46:28.996753,4060.645161290323,0,4130.322580645161,0,4095.8064516129034,0,4389.032258064516,0,4081.2903225806454,0,4065.1612903225805,0,4110.967741935484,0,4096.774193548387,0,4526.774193548387,0,4096.774193548387,0,4040.967741935484,0,4080.0,0,4047.0967741935488,0,4081.6129032258063,0,0,0,?
2018-06-06 11:46:28.996753,4060.645161290323,0,4130.322580645161,0,4095.8064516129034,0,4389.032258064516,0,4081.2903225806454,0,4065.1612903225805,0,4110.967741935484,0,4096.774193548387,0,4526.774193548387,0,4096.774193548387,0,4040.967741935484,0,4080.0,0,4047.0967741935488,0,4081.6129032258063,0,0,0,?
2018-06-06 11:46:29.018755,4060.645161290323,0,4130.322580645161,0,4095.8064516129034,0,4389.032258064516,0,4081.2903225806454,0,4065.1612903225805,0,4110.967741935484,0,4096.774193548387,0,4526.774193548387,0,4096.774193548387,0,4040.967741935484,0,4080.0,0,4047.0967741935488,0,4081.6129032258063,0,0,0,?
2018-06-06 11:46:29.019756,4060.645161290323,0,4130.322580645161,0,4095.8064516129034,0,4389.032258064516,0,4081.2903225806454,0,4065.1612903225805,0,4110.967741935484,0,4096.774193548387,0,4526.774193548387,0,4096.774193548387,0,4040.967741935484,0,4080.0,0,4047.0967741935488,0,4081.6129032258063,0,0,0,?
2018-06-06 11:46:29.019756,4060.645161290323,0,4130.322580645161,0,4095.8064516129034,0,4389.032258064516,0,4081.2903225806454,0,4065.1612903225805,0,4110.967741935484,0,4096.774193548387,0,4526.774193548387,0,4096.774193548387,0,4040.967741935484,0,4080.0,0,4047.0967741935488,0,4081.6129032258063,0,0,0,?
2018-06-06 11:46:29.024756,4060.645161290323,0,4130.322580645161,0,4095.8064516129034,0,4389.032258064516,0,4081.2903225806454,0,4065.1612903225805,0,4110.967741935484,0,4096.774193548387,0,4526.774193548387,0,4096.774193548387,0,4040.967741935484,0,4080.0,0,4047.0967741935488,0,4081.6129032258063,0,0,0,?
2018-06-06 11:46:29.030757,4060.645161290323,0,4130.322580645161,0,4095.8064516129034,0,4389.032258064516,0,4081.2903225806454,0,4065.1612903225805,0,4110.967741935484,0,4096.774193548387,0,4526.774193548387,0,4096.774193548387,0,4040.967741935484,0,4080.0,0,4047.0967741935488,0,4081.6129032258063,0,0,0,?
2018-06-06 11:46:29.050759,4060.645161290323,0,4130.322580645161,0,4095.8064516129034,0,4389.032258064516,0,4081.2903225806454,0,4065.1612903225805,0,4110.967741935484,0,4096.774193548387,0,4526.774193548387,0,4096.774193548387,0,4040.967741935484,0,4080.0,0,4047.0967741935488,0,4081.6129032258063,0,0,0,?
2018-06-06 11:46:29.050759,4060.645161290323,0,4130.322580645161,0,4095.8064516129034,0,4389.032258064516,0,4081.2903225806454,0,4065.1612903225805,0,4110.967741935484,0,4096.774193548387,0,4526.774193548387,0,4096.774193548387,0,4040.967741935484,0,4080.0,0,4047.0967741935488,0,4081.6129032258063,0,0,0,?
2018-06-06 11:46:29.055759,4060.645161290323,0,4130.322580645161,0,4095.8064516129034,0,4389.032258064516,0,4081.2903225806454,0,4065.1612903225805,0,4110.967741935484,0,4096.774193548387,0,4526.774193548387,0,4096.774193548387,0,4040.967741935484,0,4080.0,0,4047.0967741935488,0,4081.6129032258063,0,0,0,?
2018-06-06 11:46:29.061760,4060.645161290323,0,4130.322580645161,0,4095.8064516129034,0,4389.032258064516,0,4081.2903225806454,0,4065.1612903225805,0,4110.967741935484,0,4096.774193548387,0,4526.774193548387,0,4096.774193548387,0,4040.967741935484,0,4080.0,0,4047.0967741935488,0,4081.6129032258063,0,0,0,?
2018-06-06 11:46:29.083762,4060.645161290323,0,4130.322580645161,0,4095.8064516129034,0,4389.032258064516,0,4081.2903225806454,0,4065.1612903225805,0,4110.967741935484,0,4096.774193548387,0,4526.774193548387,0,4096.774193548387,0,4040.967741935484,0,4080.0,0,4047.0967741935488,0,4081.6129032258063,0,0,0,?
2018-06-06 11:46:29.083762,4060.645161290323,0,4130.322580645161,0,4095.8064516129034,0,4389.032258064516,0,4081.2903225806454,0,4065.1612903225805,0,4110.967741935484,0,4096.774193548387,0,4526.774193548387,0,4096.774193548387,0,4040.967741935484,0,4080.0,0,4047.0967741935488,0,4081.6129032258063,0,0,0,?
2018-06-06 11:46:29.109765,4060.645161290323,0,4130.322580645161,0,4095.8064516129034,0,4389.032258064516,0,4081.2903225806454,0,4065.1612903225805,0,4110.967741935484,0,4096.774193548387,0,4526.774193548387,0,4096.774193548387,0,4040.967741935484,0,4080.0,0,4047.0967741935488,0,4081.6129032258063,0,0,0,?
2018-06-06 11:46:29.109765,4060.645161290323,0,4130.322580645161,0,4095.8064516129034,0,4389.032258064516,0,4081.2903225806454,0,4065.1612903225805,0,4110.967741935484,0,4096.774193548387,0,4526.774193548387,0,4096.774193548387,0,4040.967741935484,0,4080.0,0,4047.0967741935488,0,4081.6129032258063,0,0,0,?
2018-06-06 11:46:29.157769,4060.645161290323,0,4130.322580645161,0,4095.8064516129034,0,4389.032258064516,0,4081.2903225806454,0,4065.1612903225805,0,4110.967741935484,0,4096.774193548387,0,4526.774193548387,0,4096.774193548387,0,4040.967741935484,0,4080.0,0,4047.0967741935488,0,4081.6129032258063,0,0,0,?
2018-06-06 11:46:29.157769,4060.645161290323,0,4130.322580645161,0,4095.8064516129034,0,4389.032258064516,0,4081.2903225806454,0,4065.1612903225805,0,4110.967741935484,0,4096.774193548387,0,4526.774193548387,0,4096.774193548387,0,4040.967741935484,0,4080.0,0,4047.0967741935488,0,4081.6129032258063,0,0,0,?
2018-06-06 11:46:29.157769,4060.645161290323,0,4130.322580645161,0,4095.8064516129034,0,4389.032258064516,0,4081.2903225806454,0,4065.1612903225805,0,4110.967741935484,0,4096.774193548387,0,4526.774193548387,0,4096.774193548387,0,4040.967741935484,0,4080.0,0,4047.0967741935488,0,4081.6129032258063,0,0,0,?
2018-06-06 11:46:29.157769,4060.645161290323,0,4130.322580645161,0,4095.8064516129034,0,4389.032258064516,0,4081.2903225806454,0,4065.1612903225805,0,4110.967741935484,0,4096.774193548387,0,4526.774193548387,0,4096.774193548387,0,4040.967741935484,0,4080.0,0,4047.0967741935488,0,4081.6129032258063,0,0,0,?
2018-06-06 11:46:29.168770,4060.645161290323,0,4130.322580645161,0,4095.8064516129034,0,4389.032258064516,0,4081.2903225806454,0,4065.1612903225805,0,4110.967741935484,0,4096.774193548387,0,4526.774193548387,0,4096.774193548387,0,4040.967741935484,0,4080.0,0,4047.0967741935488,0,4081.6129032258063,0,0,0,?
2018-06-06 11:46:29.168770,4060.645161290323,0,4130.322580645161,0,4095.8064516129034,0,4389.032258064516,0,4081.2903225806454,0,4065.1612903225805,0,4110.967741935484,0,4096.774193548387,0,4526.774193548387,0,4096.774193548387,0,4040.967741935484,0,4080.0,0,4047.0967741935488,0,4081.6129032258063,0,0,0,?
2018-06-06 11:46:29.179772,4060.645161290323,0,4130.322580645161,0,4095.8064516129034,0,4389.032258064516,0,4081.2903225806454,0,4065.1612903225805,0,4110.967741935484,0,4096.774193548387,0,4526.774193548387,0,4096.774193548387,0,4040.967741935484,0,4080.0,0,4047.0967741935488,0,4081.6129032258063,0,0,0,?
2018-06-06 11:46:29.179772,4060.645161290323,0,4130.322580645161,0,4095.8064516129034,0,4389.032258064516,0,4081.2903225806454,0,4065.1612903225805,0,4110.967741935484,0,4096.774193548387,0,4526.774193548387,0,4096.774193548387,0,4040.967741935484,0,4080.0,0,4047.0967741935488,0,4081.6129032258063,0,0,0,?
2018-06-06 11:46:29.185772,4060.645161290323,0,4130.322580645161,0,4095.8064516129034,0,4389.032258064516,0,4081.2903225806454,0,4065.1612903225805,0,4110.967741935484,0,4096.774193548387,0,4526.774193548387,0,4096.774193548387,0,4040.967741935484,0,4080.0,0,4047.0967741935488,0,4081.6129032258063,0,0,0,?
2018-06-06 11:46:29.212775,4060.645161290323,0,4130.322580645161,0,4095.8064516129034,0,4389.032258064516,0,4081.2903225806454,0,4065.1612903225805,0,4110.967741935484,0,4096.774193548387,0,4526.774193548387,0,4096.774193548387,0,4040.967741935484,0,4080.0,0,4047.0967741935488,0,4081.6129032258063,0,0,0,?
2018-06-06 11:46:29.212775,4060.645161290323,0,4130.322580645161,0,4095.8064516129034,0,4389.032258064516,0,4081.2903225806454,0,4065.1612903225805,0,4110.967741935484,0,4096.774193548387,0,4526.774193548387,0,4096.774193548387,0,4040.967741935484,0,4080.0,0,4047.0967741935488,0,4081.6129032258063,0,0,0,?
2018-06-06 11:46:29.228776,4060.645161290323,0,4130.322580645161,0,4095.8064516129034,0,4389.032258064516,0,4081.2903225806454,0,4065.1612903225805,0,4110.967741935484,0,4096.774193548387,0,4526.774193548387,0,4096.774193548387,0,4040.967741935484,0,4080.0,0,4047.0967741935488,0,4081.6129032258063,0,0,0,?
2018-06-06 11:46:29.228776,4060.645161290323,0,4130.322580645161,0,4095.8064516129034,0,4389.032258064516,0,4081.2903225806454,0,4065.1612903225805,0,4110.967741935484,0,4096.774193548387,0,4526.774193548387,0,4096.774193548387,0,4040.967741935484,0,4080.0,0,4047.0967741935488,0,4081.6129032258063,0,0,0,?
2018-06-06 11:46:29.233777,4060.645161290323,0,4130.322580645161,0,4095.8064516129034,0,4389.032258064516,0,4081.2903225806454,0,4065.1612903225805,0,4110.967741935484,0,4096.774193548387,0,4526.774193548387,0,4096.774193548387,0,4040.967741935484,0,4080.0,0,4047.0967741935488,0,4081.6129032258063,0,0,0,?
2018-06-06 11:46:29.234777,4060.645161290323,0,4130.322580645161,0,4095.8064516129034,0,4389.032258064516,0,4081.2903225806454,0,4065.1612903225805,0,4110.967741935484,0,4096.774193548387,0,4526.774193548387,0,4096.774193548387,0,4040.967741935484,0,4080.0,0,4047.0967741935488,0,4081.6129032258063,0,0,0,?
2018-06-06 11:46:29.234777,4060.645161290323,0,4130.322580645161,0,4095.8064516129034,0,4389.032258064516,0,4081.2903225806454,0,4065.1612903225805,0,4110.967741935484,0,4096.774193548387,0,4526.774193548387,0,4096.774193548387,0,4040.967741935484,0,4080.0,0,4047.0967741935488,0,4081.6129032258063,0,0,0,?
2018-06-06 11:46:29.235777,4060.645161290323,0,4130.322580645161,0,4095.8064516129034,0,4389.032258064516,0,4081.2903225806454,0,4065.1612903225805,0,4110.967741935484,0,4096.774193548387,0,4526.774193548387,0,4096.774193548387,0,4040.967741935484,0,4080.0,0,4047.0967741935488,0,4081.6129032258063,0,0,0,?
2018-06-06 11:46:29.235777,4060.645161290323,0,4130.322580645161,0,4095.8064516129034,0,4389.032258064516,0,4081.2903225806454,0,4065.1612903225805,0,4110.967741935484,0,4096.774193548387,0,4526.774193548387,0,4096.774193548387,0,4040.967741935484,0,4080.0,0,4047.0967741935488,0,4081.6129032258063,0,0,0,?
2018-06-06 11:46:29.253779,4060.645161290323,0,4130.322580645161,0,4095.8064516129034,0,4389.032258064516,0,4081.2903225806454,0,4065.1612903225805,0,4110.967741935484,0,4096.774193548387,0,4526.774193548387,0,4096.774193548387,0,4040.967741935484,0,4080.0,0,4047.0967741935488,0,4081.6129032258063,0,0,0,?
2018-06-06 11:46:29.259780,4060.645161290323,0,4130.322580645161,0,4095.8064516129034,0,4389.032258064516,0,4081.2903225806454,0,4065.1612903225805,0,4110.967741935484,0,4096.774193548387,0,4526.774193548387,0,4096.774193548387,0,4040.967741935484,0,4080.0,0,4047.0967741935488,0,4081.6129032258063,0,0,0,?
2018-06-06 11:46:29.260780,4060.645161290323,0,4130.322580645161,0,4095.8064516129034,0,4389.032258064516,0,4081.2903225806454,0,4065.1612903225805,0,4110.967741935484,0,4096.774193548387,0,4526.774193548387,0,4096.774193548387,0,4040.967741935484,0,4080.0,0,4047.0967741935488,0,4081.6129032258063,0,0,0,?
2018-06-06 11:46:29.265780,4060.645161290323,0,4130.322580645161,0,4095.8064516129034,0,4389.032258064516,0,4081.2903225806454,0,4065.1612903225805,0,4110.967741935484,0,4096.774193548387,0,4526.774193548387,0,4096.774193548387,0,4040.967741935484,0,4080.0,0,4047.0967741935488,0,4081.6129032258063,0,0,0,?
2018-06-06 11:46:29.299784,4060.645161290323,0,4130.322580645161,0,4095.8064516129034,0,4389.032258064516,0,4081.2903225806454,0,4065.1612903225805,0,4110.967741935484,0,4096.774193548387,0,4526.774193548387,0,4096.774193548387,0,4040.967741935484,0,4080.0,0,4047.0967741935488,0,4081.6129032258063,0,0,0,?
2018-06-06 11:46:29.299784,4060.645161290323,0,4130.322580645161,0,4095.8064516129034,0,4389.032258064516,0,4081.2903225806454,0,4065.1612903225805,0,4110.967741935484,0,4096.774193548387,0,4526.774193548387,0,4096.774193548387,0,4040.967741935484,0,4080.0,0,4047.0967741935488,0,4081.6129032258063,0,0,0,?
2018-06-06 11:46:29.300784,4060.645161290323,0,4130.322580645161,0,4095.8064516129034,0,4389.032258064516,0,4081.2903225806454,0,4065.1612903225805,0,4110.967741935484,0,4096.774193548387,0,4526.774193548387,0,4096.774193548387,0,4040.967741935484,0,4080.0,0,4047.0967741935488,0,4081.6129032258063,0,0,0,?
2018-06-06 11:46:29.300784,4060.645161290323,0,4130.322580645161,0,4095.8064516129034,0,4389.032258064516,0,4081.2903225806454,0,4065.1612903225805,0,4110.967741935484,0,4096.774193548387,0,4526.774193548387,0,4096.774193548387,0,4040.967741935484,0,4080.0,0,4047.0967741935488,0,4081.6129032258063,0,0,0,?
2018-06-06 11:46:29.317785,4060.645161290323,0,4130.322580645161,0,4095.8064516129034,0,4389.032258064516,0,4081.2903225806454,0,4065.1612903225805,0,4110.967741935484,0,4096.774193548387,0,4526.774193548387,0,4096.774193548387,0,4040.967741935484,0,4080.0,0,4047.0967741935488,0,4081.6129032258063,0,0,0,?
2018-06-06 11:46:29.317785,4060.645161290323,0,4130.322580645161,0,4095.8064516129034,0,4389.032258064516,0,4081.2903225806454,0,4065.1612903225805,0,4110.967741935484,0,4096.774193548387,0,4526.774193548387,0,4096.774193548387,0,4040.967741935484,0,4080.0,0,4047.0967741935488,0,4081.6129032258063,0,0,0,?
2018-06-06 11:46:29.335787,4060.645161290323,0,4130.322580645161,0,4095.8064516129034,0,4389.032258064516,0,4081.2903225806454,0,4065.1612903225805,0,4110.967741935484,0,4096.774193548387,0,4526.774193548387,0,4096.774193548387,0,4040.967741935484,0,4080.0,0,4047.0967741935488,0,4081.6129032258063,0,0,0,?
2018-06-06 11:46:29.341788,4060.645161290323,0,4130.322580645161,0,4095.8064516129034,0,4389.032258064516,0,4081.2903225806454,0,4065.1612903225805,0,4110.967741935484,0,4096.774193548387,0,4526.774193548387,0,4096.774193548387,0,4040.967741935484,0,4080.0,0,4047.0967741935488,0,4081.6129032258063,0,0,0,?
2018-06-06 11:46:29.341788,4060.645161290323,0,4130.322580645161,0,4095.8064516129034,0,4389.032258064516,0,4081.2903225806454,0,4065.1612903225805,0,4110.967741935484,0,4096.774193548387,0,4526.774193548387,0,4096.774193548387,0,4040.967741935484,0,4080.0,0,4047.0967741935488,0,4081.6129032258063,0,0,0,?
2018-06-06 11:46:29.353789,4060.645161290323,0,4130.322580645161,0,4095.8064516129034,0,4389.032258064516,0,4081.2903225806454,0,4065.1612903225805,0,4110.967741935484,0,4096.774193548387,0,4526.774193548387,0,4096.774193548387,0,4040.967741935484,0,4080.0,0,4047.0967741935488,0,4081.6129032258063,0,0,0,?
2018-06-06 11:46:29.353789,4060.645161290323,0,4130.322580645161,0,4095.8064516129034,0,4389.032258064516,0,4081.2903225806454,0,4065.1612903225805,0,4110.967741935484,0,4096.774193548387,0,4526.774193548387,0,4096.774193548387,0,4040.967741935484,0,4080.0,0,4047.0967741935488,0,4081.6129032258063,0,0,0,?
2018-06-06 11:46:29.364790,4060.645161290323,0,4130.322580645161,0,4095.8064516129034,0,4389.032258064516,0,4081.2903225806454,0,4065.1612903225805,0,4110.967741935484,0,4096.774193548387,0,4526.774193548387,0,4096.774193548387,0,4040.967741935484,0,4080.0,0,4047.0967741935488,0,4081.6129032258063,0,0,0,?
2018-06-06 11:46:29.381792,4060.645161290323,0,4130.322580645161,0,4095.8064516129034,0,4389.032258064516,0,4081.2903225806454,0,4065.1612903225805,0,4110.967741935484,0,4096.774193548387,0,4526.774193548387,0,4096.774193548387,0,4040.967741935484,0,4080.0,0,4047.0967741935488,0,4081.6129032258063,0,0,0,?
2018-06-06 11:46:29.381792,4060.645161290323,0,4130.322580645161,0,4095.8064516129034,0,4389.032258064516,0,4081.2903225806454,0,4065.1612903225805,0,4110.967741935484,0,4096.774193548387,0,4526.774193548387,0,4096.774193548387,0,4040.967741935484,0,4080.0,0,4047.0967741935488,0,4081.6129032258063,0,0,0,?
2018-06-06 11:46:29.393793,4060.645161290323,0,4130.322580645161,0,4095.8064516129034,0,4389.032258064516,0,4081.2903225806454,0,4065.1612903225805,0,4110.967741935484,0,4096.774193548387,0,4526.774193548387,0,4096.774193548387,0,4040.967741935484,0,4080.0,0,4047.0967741935488,0,4081.6129032258063,0,0,0,?
2018-06-06 11:46:29.393793,4060.645161290323,0,4130.322580645161,0,4095.8064516129034,0,4389.032258064516,0,4081.2903225806454,0,4065.1612903225805,0,4110.967741935484,0,4096.774193548387,0,4526.774193548387,0,4096.774193548387,0,4040.967741935484,0,4080.0,0,4047.0967741935488,0,4081.6129032258063,0,0,0,?
2018-06-06 11:46:29.404794,4060.645161290323,0,4130.322580645161,0,4095.8064516129034,0,4389.032258064516,0,4081.2903225806454,0,4065.1612903225805,0,4110.967741935484,0,4096.774193548387,0,4526.774193548387,0,4096.774193548387,0,4040.967741935484,0,4080.0,0,4047.0967741935488,0,4081.6129032258063,0,0,0,?
2018-06-06 11:46:29.415795,4060.645161290323,0,4130.322580645161,0,4095.8064516129034,0,4389.032258064516,0,4081.2903225806454,0,4065.1612903225805,0,4110.967741935484,0,4096.774193548387,0,4526.774193548387,0,4096.774193548387,0,4040.967741935484,0,4080.0,0,4047.0967741935488,0,4081.6129032258063,0,0,0,?
2018-06-06 11:46:29.416795,4060.645161290323,0,4130.322580645161,0,4095.8064516129034,0,4389.032258064516,0,4081.2903225806454,0,4065.1612903225805,0,4110.967741935484,0,4096.774193548387,0,4526.774193548387,0,4096.774193548387,0,4040.967741935484,0,4080.0,0,4047.0967741935488,0,4081.6129032258063,0,0,0,?
2018-06-06 11:46:29.436797,4060.645161290323,0,4130.322580645161,0,4095.8064516129034,0,4389.032258064516,0,4081.2903225806454,0,4065.1612903225805,0,4110.967741935484,0,4096.774193548387,0,4526.774193548387,0,4096.774193548387,0,4040.967741935484,0,4080.0,0,4047.0967741935488,0,4081.6129032258063,0,0,0,?
2018-06-06 11:46:29.457799,4060.645161290323,0,4130.322580645161,0,4095.8064516129034,0,4389.032258064516,0,4081.2903225806454,0,4065.1612903225805,0,4110.967741935484,0,4096.774193548387,0,4526.774193548387,0,4096.774193548387,0,4040.967741935484,0,4080.0,0,4047.0967741935488,0,4081.6129032258063,0,0,0,?
2018-06-06 11:46:29.457799,4060.645161290323,0,4130.322580645161,0,4095.8064516129034,0,4389.032258064516,0,4081.2903225806454,0,4065.1612903225805,0,4110.967741935484,0,4096.774193548387,0,4526.774193548387,0,4096.774193548387,0,4040.967741935484,0,4080.0,0,4047.0967741935488,0,4081.6129032258063,0,0,0,?
2018-06-06 11:46:29.475801,4060.645161290323,0,4130.322580645161,0,4095.8064516129034,0,4389.032258064516,0,4081.2903225806454,0,4065.1612903225805,0,4110.967741935484,0,4096.774193548387,0,4526.774193548387,0,4096.774193548387,0,4040.967741935484,0,4080.0,0,4047.0967741935488,0,4081.6129032258063,0,0,0,?
2018-06-06 11:46:29.475801,4060.645161290323,0,4130.322580645161,0,4095.8064516129034,0,4389.032258064516,0,4081.2903225806454,0,4065.1612903225805,0,4110.967741935484,0,4096.774193548387,0,4526.774193548387,0,4096.774193548387,0,4040.967741935484,0,4080.0,0,4047.0967741935488,0,4081.6129032258063,0,0,0,?
2018-06-06 11:46:29.475801,4060.645161290323,0,4130.322580645161,0,4095.8064516129034,0,4389.032258064516,0,4081.2903225806454,0,4065.1612903225805,0,4110.967741935484,0,4096.774193548387,0,4526.774193548387,0,4096.774193548387,0,4040.967741935484,0,4080.0,0,4047.0967741935488,0,4081.6129032258063,0,0,0,?
2018-06-06 11:46:29.475801,4060.645161290323,0,4130.322580645161,0,4095.8064516129034,0,4389.032258064516,0,4081.2903225806454,0,4065.1612903225805,0,4110.967741935484,0,4096.774193548387,0,4526.774193548387,0,4096.774193548387,0,4040.967741935484,0,4080.0,0,4047.0967741935488,0,4081.6129032258063,0,0,0,?
2018-06-06 11:46:29.491803,4060.645161290323,0,4130.322580645161,0,4095.8064516129034,0,4389.032258064516,0,4081.2903225806454,0,4065.1612903225805,0,4110.967741935484,0,4096.774193548387,0,4526.774193548387,0,4096.774193548387,0,4040.967741935484,0,4080.0,0,4047.0967741935488,0,4081.6129032258063,0,0,0,?
2018-06-06 11:46:29.506804,4060.645161290323,0,4130.322580645161,0,4095.8064516129034,0,4389.032258064516,0,4081.2903225806454,0,4065.1612903225805,0,4110.967741935484,0,4096.774193548387,0,4526.774193548387,0,4096.774193548387,0,4040.967741935484,0,4080.0,0,4047.0967741935488,0,4081.6129032258063,0,0,0,?
2018-06-06 11:46:29.511805,4060.645161290323,0,4130.322580645161,0,4095.8064516129034,0,4389.032258064516,0,4081.2903225806454,0,4065.1612903225805,0,4110.967741935484,0,4096.774193548387,0,4526.774193548387,0,4096.774193548387,0,4040.967741935484,0,4080.0,0,4047.0967741935488,0,4081.6129032258063,0,0,0,?
2018-06-06 11:46:29.511805,4060.645161290323,0,4130.322580645161,0,4095.8064516129034,0,4389.032258064516,0,4081.2903225806454,0,4065.1612903225805,0,4110.967741935484,0,4096.774193548387,0,4526.774193548387,0,4096.774193548387,0,4040.967741935484,0,4080.0,0,4047.0967741935488,0,4081.6129032258063,0,0,0,?
2018-06-06 11:46:29.511805,4060.645161290323,0,4130.322580645161,0,4095.8064516129034,0,4389.032258064516,0,4081.2903225806454,0,4065.1612903225805,0,4110.967741935484,0,4096.774193548387,0,4526.774193548387,0,4096.774193548387,0,4040.967741935484,0,4080.0,0,4047.0967741935488,0,4081.6129032258063,0,0,0,?
2018-06-06 11:46:29.517805,4060.645161290323,0,4130.322580645161,0,4095.8064516129034,0,4389.032258064516,0,4081.2903225806454,0,4065.1612903225805,0,4110.967741935484,0,4096.774193548387,0,4526.774193548387,0,4096.774193548387,0,4040.967741935484,0,4080.0,0,4047.0967741935488,0,4081.6129032258063,0,0,0,?
2018-06-06 11:46:29.528806,4060.645161290323,0,4130.322580645161,0,4095.8064516129034,0,4389.032258064516,0,4081.2903225806454,0,4065.1612903225805,0,4110.967741935484,0,4096.774193548387,0,4526.774193548387,0,4096.774193548387,0,4040.967741935484,0,4080.0,0,4047.0967741935488,0,4081.6129032258063,0,0,0,?
2018-06-06 11:46:29.534807,4060.645161290323,0,4130.322580645161,0,4095.8064516129034,0,4389.032258064516,0,4081.2903225806454,0,4065.1612903225805,0,4110.967741935484,0,4096.774193548387,0,4526.774193548387,0,4096.774193548387,0,4040.967741935484,0,4080.0,0,4047.0967741935488,0,4081.6129032258063,0,0,0,?
2018-06-06 11:46:29.546808,4060.645161290323,0,4130.322580645161,0,4095.8064516129034,0,4389.032258064516,0,4081.2903225806454,0,4065.1612903225805,0,4110.967741935484,0,4096.774193548387,0,4526.774193548387,0,4096.774193548387,0,4040.967741935484,0,4080.0,0,4047.0967741935488,0,4081.6129032258063,0,0,0,?
2018-06-06 11:46:29.557809,4060.645161290323,0,4130.322580645161,0,4095.8064516129034,0,4389.032258064516,0,4081.2903225806454,0,4065.1612903225805,0,4110.967741935484,0,4096.774193548387,0,4526.774193548387,0,4096.774193548387,0,4040.967741935484,0,4080.0,0,4047.0967741935488,0,4081.6129032258063,0,0,0,?
2018-06-06 11:46:29.580812,4060.645161290323,0,4130.322580645161,0,4095.8064516129034,0,4389.032258064516,0,4081.2903225806454,0,4065.1612903225805,0,4110.967741935484,0,4096.774193548387,0,4526.774193548387,0,4096.774193548387,0,4040.967741935484,0,4080.0,0,4047.0967741935488,0,4081.6129032258063,0,0,0,?
2018-06-06 11:46:29.580812,4060.645161290323,0,4130.322580645161,0,4095.8064516129034,0,4389.032258064516,0,4081.2903225806454,0,4065.1612903225805,0,4110.967741935484,0,4096.774193548387,0,4526.774193548387,0,4096.774193548387,0,4040.967741935484,0,4080.0,0,4047.0967741935488,0,4081.6129032258063,0,0,0,?
2018-06-06 11:46:29.608814,4060.645161290323,0,4130.322580645161,0,4095.8064516129034,0,4389.032258064516,0,4081.2903225806454,0,4065.1612903225805,0,4110.967741935484,0,4096.774193548387,0,4526.774193548387,0,4096.774193548387,0,4040.967741935484,0,4080.0,0,4047.0967741935488,0,4081.6129032258063,0,0,0,?
2018-06-06 11:46:29.608814,4060.645161290323,0,4130.322580645161,0,4095.8064516129034,0,4389.032258064516,0,4081.2903225806454,0,4065.1612903225805,0,4110.967741935484,0,4096.774193548387,0,4526.774193548387,0,4096.774193548387,0,4040.967741935484,0,4080.0,0,4047.0967741935488,0,4081.6129032258063,0,0,0,?
2018-06-06 11:46:29.620816,4060.645161290323,0,4130.322580645161,0,4095.8064516129034,0,4389.032258064516,0,4081.2903225806454,0,4065.1612903225805,0,4110.967741935484,0,4096.774193548387,0,4526.774193548387,0,4096.774193548387,0,4040.967741935484,0,4080.0,0,4047.0967741935488,0,4081.6129032258063,0,0,0,?
2018-06-06 11:46:29.625816,4060.645161290323,0,4130.322580645161,0,4095.8064516129034,0,4389.032258064516,0,4081.2903225806454,0,4065.1612903225805,0,4110.967741935484,0,4096.774193548387,0,4526.774193548387,0,4096.774193548387,0,4040.967741935484,0,4080.0,0,4047.0967741935488,0,4081.6129032258063,0,0,0,?
2018-06-06 11:46:29.631817,4060.645161290323,0,4130.322580645161,0,4095.8064516129034,0,4389.032258064516,0,4081.2903225806454,0,4065.1612903225805,0,4110.967741935484,0,4096.774193548387,0,4526.774193548387,0,4096.774193548387,0,4040.967741935484,0,4080.0,0,4047.0967741935488,0,4081.6129032258063,0,0,0,?
2018-06-06 11:46:29.632817,4060.645161290323,0,4130.322580645161,0,4095.8064516129034,0,4389.032258064516,0,4081.2903225806454,0,4065.1612903225805,0,4110.967741935484,0,4096.774193548387,0,4526.774193548387,0,4096.774193548387,0,4040.967741935484,0,4080.0,0,4047.0967741935488,0,4081.6129032258063,0,0,0,?
2018-06-06 11:46:29.632817,4060.645161290323,0,4130.322580645161,0,4095.8064516129034,0,4389.032258064516,0,4081.2903225806454,0,4065.1612903225805,0,4110.967741935484,0,4096.774193548387,0,4526.774193548387,0,4096.774193548387,0,4040.967741935484,0,4080.0,0,4047.0967741935488,0,4081.6129032258063,0,0,0,?
2018-06-06 11:46:29.632817,4060.645161290323,0,4130.322580645161,0,4095.8064516129034,0,4389.032258064516,0,4081.2903225806454,0,4065.1612903225805,0,4110.967741935484,0,4096.774193548387,0,4526.774193548387,0,4096.774193548387,0,4040.967741935484,0,4080.0,0,4047.0967741935488,0,4081.6129032258063,0,0,0,?
2018-06-06 11:46:29.643818,4060.645161290323,0,4130.322580645161,0,4095.8064516129034,0,4389.032258064516,0,4081.2903225806454,0,4065.1612903225805,0,4110.967741935484,0,4096.774193548387,0,4526.774193548387,0,4096.774193548387,0,4040.967741935484,0,4080.0,0,4047.0967741935488,0,4081.6129032258063,0,0,0,?
2018-06-06 11:46:29.654819,4060.645161290323,0,4130.322580645161,0,4095.8064516129034,0,4389.032258064516,0,4081.2903225806454,0,4065.1612903225805,0,4110.967741935484,0,4096.774193548387,0,4526.774193548387,0,4096.774193548387,0,4040.967741935484,0,4080.0,0,4047.0967741935488,0,4081.6129032258063,0,0,0,?
2018-06-06 11:46:29.659820,4060.645161290323,0,4130.322580645161,0,4095.8064516129034,0,4389.032258064516,0,4081.2903225806454,0,4065.1612903225805,0,4110.967741935484,0,4096.774193548387,0,4526.774193548387,0,4096.774193548387,0,4040.967741935484,0,4080.0,0,4047.0967741935488,0,4081.6129032258063,0,0,0,?
2018-06-06 11:46:29.659820,4060.645161290323,0,4130.322580645161,0,4095.8064516129034,0,4389.032258064516,0,4081.2903225806454,0,4065.1612903225805,0,4110.967741935484,0,4096.774193548387,0,4526.774193548387,0,4096.774193548387,0,4040.967741935484,0,4080.0,0,4047.0967741935488,0,4081.6129032258063,0,0,0,?
2018-06-06 11:46:29.676821,4060.645161290323,0,4130.322580645161,0,4095.8064516129034,0,4389.032258064516,0,4081.2903225806454,0,4065.1612903225805,0,4110.967741935484,0,4096.774193548387,0,4526.774193548387,0,4096.774193548387,0,4040.967741935484,0,4080.0,0,4047.0967741935488,0,4081.6129032258063,0,0,0,?
2018-06-06 11:46:29.676821,4060.645161290323,0,4130.322580645161,0,4095.8064516129034,0,4389.032258064516,0,4081.2903225806454,0,4065.1612903225805,0,4110.967741935484,0,4096.774193548387,0,4526.774193548387,0,4096.774193548387,0,4040.967741935484,0,4080.0,0,4047.0967741935488,0,4081.6129032258063,0,0,0,?
2018-06-06 11:46:29.686822,4060.645161290323,0,4130.322580645161,0,4095.8064516129034,0,4389.032258064516,0,4081.2903225806454,0,4065.1612903225805,0,4110.967741935484,0,4096.774193548387,0,4526.774193548387,0,4096.774193548387,0,4040.967741935484,0,4080.0,0,4047.0967741935488,0,4081.6129032258063,0,0,0,?
2018-06-06 11:46:29.692823,4060.645161290323,0,4130.322580645161,0,4095.8064516129034,0,4389.032258064516,0,4081.2903225806454,0,4065.1612903225805,0,4110.967741935484,0,4096.774193548387,0,4526.774193548387,0,4096.774193548387,0,4040.967741935484,0,4080.0,0,4047.0967741935488,0,4081.6129032258063,0,0,0,?
2018-06-06 11:46:29.707824,4060.645161290323,0,4130.322580645161,0,4095.8064516129034,0,4389.032258064516,0,4081.2903225806454,0,4065.1612903225805,0,4110.967741935484,0,4096.774193548387,0,4526.774193548387,0,4096.774193548387,0,4040.967741935484,0,4080.0,0,4047.0967741935488,0,4081.6129032258063,0,0,0,?
2018-06-06 11:46:29.707824,4060.645161290323,0,4130.322580645161,0,4095.8064516129034,0,4389.032258064516,0,4081.2903225806454,0,4065.1612903225805,0,4110.967741935484,0,4096.774193548387,0,4526.774193548387,0,4096.774193548387,0,4040.967741935484,0,4080.0,0,4047.0967741935488,0,4081.6129032258063,0,0,0,?
2018-06-06 11:46:29.733827,4060.645161290323,0,4130.322580645161,0,4095.8064516129034,0,4389.032258064516,0,4081.2903225806454,0,4065.1612903225805,0,4110.967741935484,0,4096.774193548387,0,4526.774193548387,0,4096.774193548387,0,4040.967741935484,0,4080.0,0,4047.0967741935488,0,4081.6129032258063,0,0,0,?
2018-06-06 11:46:29.733827,4060.645161290323,0,4130.322580645161,0,4095.8064516129034,0,4389.032258064516,0,4081.2903225806454,0,4065.1612903225805,0,4110.967741935484,0,4096.774193548387,0,4526.774193548387,0,4096.774193548387,0,4040.967741935484,0,4080.0,0,4047.0967741935488,0,4081.6129032258063,0,0,0,?
2018-06-06 11:46:29.744828,4060.645161290323,0,4130.322580645161,0,4095.8064516129034,0,4389.032258064516,0,4081.2903225806454,0,4065.1612903225805,0,4110.967741935484,0,4096.774193548387,0,4526.774193548387,0,4096.774193548387,0,4040.967741935484,0,4080.0,0,4047.0967741935488,0,4081.6129032258063,0,0,0,?
2018-06-06 11:46:29.750829,4060.645161290323,0,4130.322580645161,0,4095.8064516129034,0,4389.032258064516,0,4081.2903225806454,0,4065.1612903225805,0,4110.967741935484,0,4096.774193548387,0,4526.774193548387,0,4096.774193548387,0,4040.967741935484,0,4080.0,0,4047.0967741935488,0,4081.6129032258063,0,0,0,?
2018-06-06 11:46:29.765830,4060.645161290323,0,4130.322580645161,0,4095.8064516129034,0,4389.032258064516,0,4081.2903225806454,0,4065.1612903225805,0,4110.967741935484,0,4096.774193548387,0,4526.774193548387,0,4096.774193548387,0,4040.967741935484,0,4080.0,0,4047.0967741935488,0,4081.6129032258063,0,0,0,?
2018-06-06 11:46:29.765830,4060.645161290323,0,4130.322580645161,0,4095.8064516129034,0,4389.032258064516,0,4081.2903225806454,0,4065.1612903225805,0,4110.967741935484,0,4096.774193548387,0,4526.774193548387,0,4096.774193548387,0,4040.967741935484,0,4080.0,0,4047.0967741935488,0,4081.6129032258063,0,0,0,?
2018-06-06 11:46:29.777831,4060.645161290323,0,4130.322580645161,0,4095.8064516129034,0,4389.032258064516,0,4081.2903225806454,0,4065.1612903225805,0,4110.967741935484,0,4096.774193548387,0,4526.774193548387,0,4096.774193548387,0,4040.967741935484,0,4080.0,0,4047.0967741935488,0,4081.6129032258063,0,0,0,?
2018-06-06 11:46:29.777831,4060.645161290323,0,4130.322580645161,0,4095.8064516129034,0,4389.032258064516,0,4081.2903225806454,0,4065.1612903225805,0,4110.967741935484,0,4096.774193548387,0,4526.774193548387,0,4096.774193548387,0,4040.967741935484,0,4080.0,0,4047.0967741935488,0,4081.6129032258063,0,0,0,?
2018-06-06 11:46:29.794833,4060.645161290323,0,4130.322580645161,0,4095.8064516129034,0,4389.032258064516,0,4081.2903225806454,0,4065.1612903225805,0,4110.967741935484,0,4096.774193548387,0,4526.774193548387,0,4096.774193548387,0,4040.967741935484,0,4080.0,0,4047.0967741935488,0,4081.6129032258063,0,0,0,?
2018-06-06 11:46:29.799834,4060.645161290323,0,4130.322580645161,0,4095.8064516129034,0,4389.032258064516,0,4081.2903225806454,0,4065.1612903225805,0,4110.967741935484,0,4096.774193548387,0,4526.774193548387,0,4096.774193548387,0,4040.967741935484,0,4080.0,0,4047.0967741935488,0,4081.6129032258063,0,0,0,?
2018-06-06 11:46:29.799834,4060.645161290323,0,4130.322580645161,0,4095.8064516129034,0,4389.032258064516,0,4081.2903225806454,0,4065.1612903225805,0,4110.967741935484,0,4096.774193548387,0,4526.774193548387,0,4096.774193548387,0,4040.967741935484,0,4080.0,0,4047.0967741935488,0,4081.6129032258063,0,0,0,?
2018-06-06 11:46:29.800834,4060.645161290323,0,4130.322580645161,0,4095.8064516129034,0,4389.032258064516,0,4081.2903225806454,0,4065.1612903225805,0,4110.967741935484,0,4096.774193548387,0,4526.774193548387,0,4096.774193548387,0,4040.967741935484,0,4080.0,0,4047.0967741935488,0,4081.6129032258063,0,0,0,?
2018-06-06 11:46:29.811835,4060.645161290323,0,4130.322580645161,0,4095.8064516129034,0,4389.032258064516,0,4081.2903225806454,0,4065.1612903225805,0,4110.967741935484,0,4096.774193548387,0,4526.774193548387,0,4096.774193548387,0,4040.967741935484,0,4080.0,0,4047.0967741935488,0,4081.6129032258063,0,0,0,?
2018-06-06 11:46:29.823836,4060.645161290323,0,4130.322580645161,0,4095.8064516129034,0,4389.032258064516,0,4081.2903225806454,0,4065.1612903225805,0,4110.967741935484,0,4096.774193548387,0,4526.774193548387,0,4096.774193548387,0,4040.967741935484,0,4080.0,0,4047.0967741935488,0,4081.6129032258063,0,0,0,?
2018-06-06 11:46:29.833837,4060.645161290323,0,4130.322580645161,0,4095.8064516129034,0,4389.032258064516,0,4081.2903225806454,0,4065.1612903225805,0,4110.967741935484,0,4096.774193548387,0,4526.774193548387,0,4096.774193548387,0,4040.967741935484,0,4080.0,0,4047.0967741935488,0,4081.6129032258063,0,0,0,?
2018-06-06 11:46:29.833837,4060.645161290323,0,4130.322580645161,0,4095.8064516129034,0,4389.032258064516,0,4081.2903225806454,0,4065.1612903225805,0,4110.967741935484,0,4096.774193548387,0,4526.774193548387,0,4096.774193548387,0,4040.967741935484,0,4080.0,0,4047.0967741935488,0,4081.6129032258063,0,0,0,?
2018-06-06 11:46:29.863840,4060.645161290323,0,4130.322580645161,0,4095.8064516129034,0,4389.032258064516,0,4081.2903225806454,0,4065.1612903225805,0,4110.967741935484,0,4096.774193548387,0,4526.774193548387,0,4096.774193548387,0,4040.967741935484,0,4080.0,0,4047.0967741935488,0,4081.6129032258063,0,0,0,?
2018-06-06 11:46:29.864840,4060.645161290323,0,4130.322580645161,0,4095.8064516129034,0,4389.032258064516,0,4081.2903225806454,0,4065.1612903225805,0,4110.967741935484,0,4096.774193548387,0,4526.774193548387,0,4096.774193548387,0,4040.967741935484,0,4080.0,0,4047.0967741935488,0,4081.6129032258063,0,0,0,?
2018-06-06 11:46:29.864840,4060.645161290323,0,4130.322580645161,0,4095.8064516129034,0,4389.032258064516,0,4081.2903225806454,0,4065.1612903225805,0,4110.967741935484,0,4096.774193548387,0,4526.774193548387,0,4096.774193548387,0,4040.967741935484,0,4080.0,0,4047.0967741935488,0,4081.6129032258063,0,0,0,?
2018-06-06 11:46:29.864840,4060.645161290323,0,4130.322580645161,0,4095.8064516129034,0,4389.032258064516,0,4081.2903225806454,0,4065.1612903225805,0,4110.967741935484,0,4096.774193548387,0,4526.774193548387,0,4096.774193548387,0,4040.967741935484,0,4080.0,0,4047.0967741935488,0,4081.6129032258063,0,0,0,?
2018-06-06 11:46:29.896843,4060.645161290323,0,4130.322580645161,0,4095.8064516129034,0,4389.032258064516,0,4081.2903225806454,0,4065.1612903225805,0,4110.967741935484,0,4096.774193548387,0,4526.774193548387,0,4096.774193548387,0,4040.967741935484,0,4080.0,0,4047.0967741935488,0,4081.6129032258063,0,0,0,?
2018-06-06 11:46:29.896843,4060.645161290323,0,4130.322580645161,0,4095.8064516129034,0,4389.032258064516,0,4081.2903225806454,0,4065.1612903225805,0,4110.967741935484,0,4096.774193548387,0,4526.774193548387,0,4096.774193548387,0,4040.967741935484,0,4080.0,0,4047.0967741935488,0,4081.6129032258063,0,0,0,?
2018-06-06 11:46:29.896843,4060.645161290323,0,4130.322580645161,0,4095.8064516129034,0,4389.032258064516,0,4081.2903225806454,0,4065.1612903225805,0,4110.967741935484,0,4096.774193548387,0,4526.774193548387,0,4096.774193548387,0,4040.967741935484,0,4080.0,0,4047.0967741935488,0,4081.6129032258063,0,0,0,?
2018-06-06 11:46:29.906844,4060.645161290323,0,4130.322580645161,0,4095.8064516129034,0,4389.032258064516,0,4081.2903225806454,0,4065.1612903225805,0,4110.967741935484,0,4096.774193548387,0,4526.774193548387,0,4096.774193548387,0,4040.967741935484,0,4080.0,0,4047.0967741935488,0,4081.6129032258063,0,0,0,?
2018-06-06 11:46:29.916845,4060.645161290323,0,4130.322580645161,0,4095.8064516129034,0,4389.032258064516,0,4081.2903225806454,0,4065.1612903225805,0,4110.967741935484,0,4096.774193548387,0,4526.774193548387,0,4096.774193548387,0,4040.967741935484,0,4080.0,0,4047.0967741935488,0,4081.6129032258063,0,0,0,?
2018-06-06 11:46:29.916845,4060.645161290323,0,4130.322580645161,0,4095.8064516129034,0,4389.032258064516,0,4081.2903225806454,0,4065.1612903225805,0,4110.967741935484,0,4096.774193548387,0,4526.774193548387,0,4096.774193548387,0,4040.967741935484,0,4080.0,0,4047.0967741935488,0,4081.6129032258063,0,0,0,?
2018-06-06 11:46:29.928846,4060.645161290323,0,4130.322580645161,0,4095.8064516129034,0,4389.032258064516,0,4081.2903225806454,0,4065.1612903225805,0,4110.967741935484,0,4096.774193548387,0,4526.774193548387,0,4096.774193548387,0,4040.967741935484,0,4080.0,0,4047.0967741935488,0,4081.6129032258063,0,0,0,?
2018-06-06 11:46:29.928846,4060.645161290323,0,4130.322580645161,0,4095.8064516129034,0,4389.032258064516,0,4081.2903225806454,0,4065.1612903225805,0,4110.967741935484,0,4096.774193548387,0,4526.774193548387,0,4096.774193548387,0,4040.967741935484,0,4080.0,0,4047.0967741935488,0,4081.6129032258063,0,0,0,?
2018-06-06 11:46:29.939848,4060.645161290323,0,4130.322580645161,0,4095.8064516129034,0,4389.032258064516,0,4081.2903225806454,0,4065.1612903225805,0,4110.967741935484,0,4096.774193548387,0,4526.774193548387,0,4096.774193548387,0,4040.967741935484,0,4080.0,0,4047.0967741935488,0,4081.6129032258063,0,0,0,?
2018-06-06 11:46:29.950849,4060.645161290323,0,4130.322580645161,0,4095.8064516129034,0,4389.032258064516,0,4081.2903225806454,0,4065.1612903225805,0,4110.967741935484,0,4096.774193548387,0,4526.774193548387,0,4096.774193548387,0,4040.967741935484,0,4080.0,0,4047.0967741935488,0,4081.6129032258063,0,0,0,?
2018-06-06 11:46:29.961850,4060.645161290323,0,4130.322580645161,0,4095.8064516129034,0,4389.032258064516,0,4081.2903225806454,0,4065.1612903225805,0,4110.967741935484,0,4096.774193548387,0,4526.774193548387,0,4096.774193548387,0,4040.967741935484,0,4080.0,0,4047.0967741935488,0,4081.6129032258063,0,0,0,?
2018-06-06 11:46:29.961850,4060.645161290323,0,4130.322580645161,0,4095.8064516129034,0,4389.032258064516,0,4081.2903225806454,0,4065.1612903225805,0,4110.967741935484,0,4096.774193548387,0,4526.774193548387,0,4096.774193548387,0,4040.967741935484,0,4080.0,0,4047.0967741935488,0,4081.6129032258063,0,0,0,?
2018-06-06 11:46:29.984852,4060.645161290323,0,4130.322580645161,0,4095.8064516129034,0,4389.032258064516,0,4081.2903225806454,0,4065.1612903225805,0,4110.967741935484,0,4096.774193548387,0,4526.774193548387,0,4096.774193548387,0,4040.967741935484,0,4080.0,0,4047.0967741935488,0,4081.6129032258063,0,0,0,?
2018-06-06 11:46:30.031857,4060.645161290323,0,4130.322580645161,0,4095.8064516129034,0,4389.032258064516,0,4081.2903225806454,0,4065.1612903225805,0,4110.967741935484,0,4096.774193548387,0,4526.774193548387,0,4096.774193548387,0,4040.967741935484,0,4080.0,0,4047.0967741935488,0,4081.6129032258063,0,0,0,?
2018-06-06 11:46:30.031857,4060.645161290323,0,4130.322580645161,0,4095.8064516129034,0,4389.032258064516,0,4081.2903225806454,0,4065.1612903225805,0,4110.967741935484,0,4096.774193548387,0,4526.774193548387,0,4096.774193548387,0,4040.967741935484,0,4080.0,0,4047.0967741935488,0,4081.6129032258063,0,0,0,?
2018-06-06 11:46:30.031857,4060.645161290323,0,4130.322580645161,0,4095.8064516129034,0,4389.032258064516,0,4081.2903225806454,0,4065.1612903225805,0,4110.967741935484,0,4096.774193548387,0,4526.774193548387,0,4096.774193548387,0,4040.967741935484,0,4080.0,0,4047.0967741935488,0,4081.6129032258063,0,0,0,?
2018-06-06 11:46:30.031857,4060.645161290323,0,4130.322580645161,0,4095.8064516129034,0,4389.032258064516,0,4081.2903225806454,0,4065.1612903225805,0,4110.967741935484,0,4096.774193548387,0,4526.774193548387,0,4096.774193548387,0,4040.967741935484,0,4080.0,0,4047.0967741935488,0,4081.6129032258063,0,0,0,?
2018-06-06 11:46:30.031857,4060.645161290323,0,4130.322580645161,0,4095.8064516129034,0,4389.032258064516,0,4081.2903225806454,0,4065.1612903225805,0,4110.967741935484,0,4096.774193548387,0,4526.774193548387,0,4096.774193548387,0,4040.967741935484,0,4080.0,0,4047.0967741935488,0,4081.6129032258063,0,0,0,?
2018-06-06 11:46:30.031857,4060.645161290323,0,4130.322580645161,0,4095.8064516129034,0,4389.032258064516,0,4081.2903225806454,0,4065.1612903225805,0,4110.967741935484,0,4096.774193548387,0,4526.774193548387,0,4096.774193548387,0,4040.967741935484,0,4080.0,0,4047.0967741935488,0,4081.6129032258063,0,0,0,?
2018-06-06 11:46:30.031857,4060.645161290323,0,4130.322580645161,0,4095.8064516129034,0,4389.032258064516,0,4081.2903225806454,0,4065.1612903225805,0,4110.967741935484,0,4096.774193548387,0,4526.774193548387,0,4096.774193548387,0,4040.967741935484,0,4080.0,0,4047.0967741935488,0,4081.6129032258063,0,0,0,?
