Timestamp,F3 Value,F3 Quality,FC5 Value,FC5 Quality,F7 Value,F7 Quality,T7 Value,T7 Quality,P7 Value,P7 Quality,O1 Value,O1 Quality,O2 Value,O2 Quality,P8 Value,P8 Quality,T8 Value,T8 Quality,F8 Value,F8 Quality,AF4 Value,AF4 Quality,FC6 Value,FC6 Quality,F4 Value,F4 Quality,AF3 Value,AF3 Quality,X Value,Y Value,Z Value
2018-06-05 19:14:44.363255,3589.6774193548385,0,3594.838709677419,0,3552.258064516129,0,3649.354838709677,0,3811.6129032258063,0,3877.741935483871,0,3593.548387096774,0,3583.2258064516127,0,3593.870967741935,0,3884.1935483870966,0,3973.8709677419356,0,3640.322580645161,0,4259.677419354839,0,3913.8709677419356,0,0,0,?
2018-06-05 19:14:44.363255,3589.6774193548385,0,3594.838709677419,0,3552.258064516129,0,3649.354838709677,0,3811.6129032258063,0,3877.741935483871,0,3593.548387096774,0,3583.2258064516127,0,3593.870967741935,0,3884.1935483870966,0,3973.8709677419356,0,3640.322580645161,0,4259.677419354839,0,3913.8709677419356,0,0,0,?
2018-06-05 19:14:44.373256,3590.6451612903224,0,3597.4193548387098,0,3543.870967741935,0,3666.1290322580644,0,3825.483870967742,0,3918.7096774193546,0,3548.709677419355,0,3580.0,0,3582.9032258064517,0,3920.322580645161,0,3990.0000000000005,0,3648.064516129032,0,4263.870967741936,0,3886.1290322580644,0,0,0,?
2018-06-05 19:14:44.378257,3595.483870967742,0,3587.0967741935483,0,3541.935483870968,0,3690.0,0,3791.6129032258063,0,3894.516129032258,0,3574.1935483870966,0,3575.1612903225805,0,3553.548387096774,0,3877.4193548387098,0,3999.3548387096776,0,3645.806451612903,0,4234.8387096774195,0,3903.548387096774,0,0,0,?
2018-06-05 19:14:44.378257,3585.806451612903,0,3595.806451612903,0,3543.870967741935,0,3684.8387096774195,0,3784.516129032258,0,3879.032258064516,0,3582.9032258064517,0,3583.870967741935,0,3550.967741935484,0,3876.7741935483873,0,4008.064516129032,0,3651.6129032258063,0,4208.064516129033,0,3919.6774193548385,0,0,0,?
2018-06-05 19:14:44.412260,3585.806451612903,0,3595.806451612903,0,3543.870967741935,0,3684.8387096774195,0,3784.516129032258,0,3879.032258064516,0,3582.9032258064517,0,3583.870967741935,0,3550.967741935484,0,3876.7741935483873,0,4008.064516129032,0,3651.6129032258063,0,4208.064516129033,0,3919.6774193548385,0,0,0,?
2018-06-05 19:14:44.423261,3585.806451612903,0,3595.806451612903,0,3543.870967741935,0,3684.8387096774195,0,3784.516129032258,0,3879.032258064516,0,3582.9032258064517,0,3583.870967741935,0,3550.967741935484,0,3876.7741935483873,0,4008.064516129032,0,3651.6129032258063,0,4208.064516129033,0,3919.6774193548385,0,0,0,?
2018-06-05 19:14:44.423261,3585.806451612903,0,3595.806451612903,0,3543.870967741935,0,3684.8387096774195,0,3784.516129032258,0,3879.032258064516,0,3582.9032258064517,0,3583.870967741935,0,3550.967741935484,0,3876.7741935483873,0,4008.064516129032,0,3651.6129032258063,0,4208.064516129033,0,3919.6774193548385,0,0,0,?
2018-06-05 19:14:44.423261,3585.806451612903,0,3595.806451612903,0,3543.870967741935,0,3684.8387096774195,0,3784.516129032258,0,3879.032258064516,0,3582.9032258064517,0,3583.870967741935,0,3550.967741935484,0,3876.7741935483873,0,4008.064516129032,0,3651.6129032258063,0,4208.064516129033,0,3919.6774193548385,0,0,0,?
2018-06-05 19:14:44.423261,3585.806451612903,0,3595.806451612903,0,3543.870967741935,0,3684.8387096774195,0,3784.516129032258,0,3879.032258064516,0,3582.9032258064517,0,3583.870967741935,0,3550.967741935484,0,3876.7741935483873,0,4008.064516129032,0,3651.6129032258063,0,4208.064516129033,0,3919.6774193548385,0,0,0,?
2018-06-05 19:14:44.428262,3585.806451612903,0,3595.806451612903,0,3543.870967741935,0,3684.8387096774195,0,3784.516129032258,0,3879.032258064516,0,3582.9032258064517,0,3583.870967741935,0,3550.967741935484,0,3876.7741935483873,0,4008.064516129032,0,3651.6129032258063,0,4208.064516129033,0,3919.6774193548385,0,0,0,?
2018-06-05 19:14:44.434262,3596.774193548387,0,3553.548387096774,0,3552.9032258064517,0,3668.064516129032,0,3807.7419354838707,0,3902.5806451612902,0,3562.9032258064517,0,3585.1612903225805,0,3561.2903225806454,0,3906.4516129032254,0,3981.2903225806454,0,3660.967741935484,0,4243.548387096775,0,3905.8064516129034,0,0,0,?
2018-06-05 19:14:44.455265,3594.516129032258,0,3598.064516129032,0,3551.290322580645,0,3645.1612903225805,0,3784.516129032258,0,3876.7741935483873,0,3592.258064516129,0,3574.1935483870966,0,3559.032258064516,0,3883.8709677419356,0,3991.935483870968,0,3656.451612903226,0,4223.225806451614,0,3932.2580645161293,0,0,0,?
2018-06-05 19:14:44.455265,3557.741935483871,0,3556.451612903226,0,3562.258064516129,0,3654.516129032258,0,3821.9354838709673,0,3906.774193548387,0,3558.064516129032,0,3590.6451612903224,0,3558.3870967741937,0,3896.1290322580644,0,4001.2903225806454,0,3659.032258064516,0,4251.612903225807,0,3898.064516129032,0,0,0,?
2018-06-05 19:14:44.455265,3557.741935483871,0,3556.451612903226,0,3562.258064516129,0,3654.516129032258,0,3821.9354838709673,0,3906.774193548387,0,3558.064516129032,0,3590.6451612903224,0,3558.3870967741937,0,3896.1290322580644,0,4001.2903225806454,0,3659.032258064516,0,4251.612903225807,0,3898.064516129032,0,0,0,?
2018-06-05 19:14:44.465266,3557.741935483871,0,3556.451612903226,0,3562.258064516129,0,3654.516129032258,0,3821.9354838709673,0,3906.774193548387,0,3558.064516129032,0,3590.6451612903224,0,3558.3870967741937,0,3896.1290322580644,0,4001.2903225806454,0,3659.032258064516,0,4251.612903225807,0,3898.064516129032,0,0,0,?
2018-06-05 19:14:44.481267,3557.741935483871,0,3556.451612903226,0,3562.258064516129,0,3654.516129032258,0,3821.9354838709673,0,3906.774193548387,0,3558.064516129032,0,3590.6451612903224,0,3558.3870967741937,0,3896.1290322580644,0,4001.2903225806454,0,3659.032258064516,0,4251.612903225807,0,3898.064516129032,0,0,0,?
2018-06-05 19:14:44.481267,3550.3225806451615,0,3594.838709677419,0,3551.290322580645,0,3653.548387096774,0,3820.322580645161,0,3903.2258064516127,0,3595.483870967742,0,3591.6129032258063,0,3557.741935483871,0,3879.032258064516,0,4024.193548387097,0,3661.6129032258063,0,4224.8387096774195,0,3903.225806451613,0,0,0,?
2018-06-05 19:14:44.514270,3548.3870967741937,0,3552.9032258064517,0,3559.032258064516,0,3654.1935483870966,0,3808.7096774193546,0,3908.387096774193,0,3582.9032258064517,0,3595.483870967742,0,3565.483870967742,0,3889.032258064516,0,3997.0967741935488,0,3653.548387096774,0,4210.645161290323,0,3905.483870967742,0,0,0,?
2018-06-05 19:14:44.514270,3548.3870967741937,0,3552.9032258064517,0,3559.032258064516,0,3654.1935483870966,0,3808.7096774193546,0,3908.387096774193,0,3582.9032258064517,0,3595.483870967742,0,3565.483870967742,0,3889.032258064516,0,3997.0967741935488,0,3653.548387096774,0,4210.645161290323,0,3905.483870967742,0,0,0,?
2018-06-05 19:14:44.515271,3571.2903225806454,0,3572.2580645161293,0,3582.9032258064517,0,3685.483870967742,0,3838.387096774193,0,3906.7741935483873,0,3579.032258064516,0,3554.8387096774195,0,3573.8709677419356,0,3898.7096774193546,0,3994.1935483870966,0,3619.677419354839,0,4230.0,0,3885.483870967742,0,0,0,?
2018-06-05 19:14:44.515271,3577.4193548387098,0,3569.3548387096776,0,3575.1612903225805,0,3700.6451612903224,0,3834.516129032258,0,3924.516129032258,0,3573.548387096774,0,3558.064516129032,0,3569.677419354839,0,3904.838709677419,0,3938.7096774193546,0,3622.9032258064517,0,4250.967741935484,0,3882.9032258064517,0,0,0,?
2018-06-05 19:14:44.520271,3550.645161290323,0,3549.677419354839,0,3560.6451612903224,0,3650.0,0,3789.6774193548385,0,3876.7741935483873,0,3551.2903225806454,0,3591.935483870968,0,3571.935483870968,0,3898.064516129032,0,3990.967741935484,0,3662.5806451612902,0,4222.903225806452,0,3917.4193548387098,0,0,0,?
2018-06-05 19:14:44.531272,3550.645161290323,0,3549.677419354839,0,3560.6451612903224,0,3650.0,0,3789.6774193548385,0,3876.7741935483873,0,3551.2903225806454,0,3591.935483870968,0,3571.935483870968,0,3898.064516129032,0,3990.967741935484,0,3662.5806451612902,0,4222.903225806452,0,3917.4193548387098,0,0,0,?
2018-06-05 19:14:44.562275,3550.645161290323,0,3549.677419354839,0,3560.6451612903224,0,3650.0,0,3789.6774193548385,0,3876.7741935483873,0,3551.2903225806454,0,3591.935483870968,0,3571.935483870968,0,3898.064516129032,0,3990.967741935484,0,3662.5806451612902,0,4222.903225806452,0,3917.4193548387098,0,0,0,?
2018-06-05 19:14:44.562275,3550.645161290323,0,3549.677419354839,0,3560.6451612903224,0,3650.0,0,3789.6774193548385,0,3876.7741935483873,0,3551.2903225806454,0,3591.935483870968,0,3571.935483870968,0,3898.064516129032,0,3990.967741935484,0,3662.5806451612902,0,4222.903225806452,0,3917.4193548387098,0,0,0,?
2018-06-05 19:14:44.563275,3571.2903225806454,0,3571.935483870968,0,3582.258064516129,0,3691.290322580645,0,3831.6129032258063,0,3919.032258064516,0,3577.0967741935483,0,3560.3225806451615,0,3568.3870967741937,0,3917.7419354838707,0,3970.967741935484,0,3614.516129032258,0,4226.451612903226,0,3894.1935483870966,0,0,0,?
2018-06-05 19:14:44.563275,3559.3548387096776,0,3560.645161290323,0,3571.935483870968,0,3662.9032258064512,0,3803.548387096774,0,3908.7096774193546,0,3595.806451612903,0,3556.1290322580644,0,3562.2580645161293,0,3929.3548387096776,0,4005.161290322581,0,3614.8387096774195,0,4242.580645161291,0,3949.3548387096776,0,0,0,?
2018-06-05 19:14:44.594278,3575.8064516129034,0,3583.8709677419356,0,3575.1612903225805,0,3685.1612903225805,0,3842.9032258064512,0,3883.8709677419356,0,3564.516129032258,0,3564.8387096774195,0,3570.3225806451615,0,3895.483870967742,0,3983.8709677419356,0,3617.4193548387098,0,4269.032258064516,0,3894.516129032258,0,0,0,?
2018-06-05 19:14:44.610280,3559.677419354839,0,3569.3548387096776,0,3565.806451612903,0,3655.1612903225805,0,3812.5806451612902,0,3906.4516129032254,0,3550.967741935484,0,3555.8064516129034,0,3575.8064516129034,0,3914.1935483870966,0,4038.0645161290327,0,3615.8064516129034,0,4237.096774193549,0,3921.935483870968,0,0,0,?
2018-06-05 19:14:44.641283,3568.3870967741937,0,3578.3870967741937,0,3579.354838709677,0,3686.451612903226,0,3845.806451612903,0,3888.3870967741937,0,3573.225806451613,0,3567.741935483871,0,3578.3870967741937,0,3881.6129032258063,0,4010.6451612903224,0,3620.0,0,4259.354838709678,0,3896.1290322580644,0,0,0,?
2018-06-05 19:14:44.647284,3561.2903225806454,0,3573.225806451613,0,3576.774193548387,0,3661.290322580645,0,3825.1612903225805,0,3912.258064516129,0,3557.4193548387098,0,3564.516129032258,0,3574.8387096774195,0,3902.2580645161293,0,4030.0000000000005,0,3621.6129032258063,0,4224.8387096774195,0,3904.8387096774195,0,0,0,?
2018-06-05 19:14:44.694288,3570.0,0,3581.935483870968,0,3578.3870967741937,0,3671.935483870968,0,3836.1290322580644,0,3877.741935483871,0,3563.225806451613,0,3568.709677419355,0,3572.5806451612902,0,3872.2580645161293,0,3974.516129032258,0,3622.2580645161293,0,4228.709677419355,0,3878.3870967741937,0,0,0,?
2018-06-05 19:14:44.704289,3563.225806451613,0,3571.935483870968,0,3581.6129032258063,0,3676.1290322580644,0,3838.064516129032,0,3879.6774193548385,0,3566.451612903226,0,3564.8387096774195,0,3575.161290322581,0,3920.6451612903224,0,4012.9032258064517,0,3623.8709677419356,0,4207.41935483871,0,3894.516129032258,0,0,0,?
2018-06-05 19:14:44.716291,3593.548387096774,0,3601.2903225806454,0,3550.967741935484,0,3707.7419354838707,0,3839.354838709677,0,3921.6129032258063,0,3590.3225806451615,0,3589.032258064516,0,3602.2580645161293,0,3913.870967741935,0,3963.548387096774,0,3636.451612903226,0,4248.064516129033,0,3912.9032258064517,0,0,0,?
2018-06-05 19:14:44.732292,3593.548387096774,0,3601.2903225806454,0,3550.967741935484,0,3707.7419354838707,0,3839.354838709677,0,3921.6129032258063,0,3590.3225806451615,0,3589.032258064516,0,3602.2580645161293,0,3913.870967741935,0,3963.548387096774,0,3636.451612903226,0,4248.064516129033,0,3912.9032258064517,0,0,0,?
2018-06-05 19:14:44.737293,3593.548387096774,0,3601.2903225806454,0,3550.967741935484,0,3707.7419354838707,0,3839.354838709677,0,3921.6129032258063,0,3590.3225806451615,0,3589.032258064516,0,3602.2580645161293,0,3913.870967741935,0,3963.548387096774,0,3636.451612903226,0,4248.064516129033,0,3912.9032258064517,0,0,0,?
2018-06-05 19:14:44.737293,3593.548387096774,0,3601.2903225806454,0,3550.967741935484,0,3707.7419354838707,0,3839.354838709677,0,3921.6129032258063,0,3590.3225806451615,0,3589.032258064516,0,3602.2580645161293,0,3913.870967741935,0,3963.548387096774,0,3636.451612903226,0,4248.064516129033,0,3912.9032258064517,0,0,0,?
2018-06-05 19:14:44.737293,3593.548387096774,0,3601.2903225806454,0,3550.967741935484,0,3707.7419354838707,0,3839.354838709677,0,3921.6129032258063,0,3590.3225806451615,0,3589.032258064516,0,3602.2580645161293,0,3913.870967741935,0,3963.548387096774,0,3636.451612903226,0,4248.064516129033,0,3912.9032258064517,0,0,0,?
2018-06-05 19:14:44.737293,3593.548387096774,0,3601.2903225806454,0,3550.967741935484,0,3707.7419354838707,0,3839.354838709677,0,3921.6129032258063,0,3590.3225806451615,0,3589.032258064516,0,3602.2580645161293,0,3913.870967741935,0,3963.548387096774,0,3636.451612903226,0,4248.064516129033,0,3912.9032258064517,0,0,0,?
2018-06-05 19:14:44.737293,3593.548387096774,0,3601.2903225806454,0,3550.967741935484,0,3707.7419354838707,0,3839.354838709677,0,3921.6129032258063,0,3590.3225806451615,0,3589.032258064516,0,3602.2580645161293,0,3913.870967741935,0,3963.548387096774,0,3636.451612903226,0,4248.064516129033,0,3912.9032258064517,0,0,0,?
2018-06-05 19:14:44.737293,3593.548387096774,0,3601.2903225806454,0,3550.967741935484,0,3707.7419354838707,0,3839.354838709677,0,3921.6129032258063,0,3590.3225806451615,0,3589.032258064516,0,3602.2580645161293,0,3913.870967741935,0,3963.548387096774,0,3636.451612903226,0,4248.064516129033,0,3912.9032258064517,0,0,0,?
2018-06-05 19:14:44.737293,3593.548387096774,0,3601.2903225806454,0,3550.967741935484,0,3707.7419354838707,0,3839.354838709677,0,3921.6129032258063,0,3590.3225806451615,0,3589.032258064516,0,3602.2580645161293,0,3913.870967741935,0,3963.548387096774,0,3636.451612903226,0,4248.064516129033,0,3912.9032258064517,0,0,0,?
2018-06-05 19:14:44.737293,3593.548387096774,0,3601.2903225806454,0,3550.967741935484,0,3707.7419354838707,0,3839.354838709677,0,3921.6129032258063,0,3590.3225806451615,0,3589.032258064516,0,3602.2580645161293,0,3913.870967741935,0,3963.548387096774,0,3636.451612903226,0,4248.064516129033,0,3912.9032258064517,0,0,0,?
2018-06-05 19:14:44.737293,3593.548387096774,0,3601.2903225806454,0,3550.967741935484,0,3707.7419354838707,0,3839.354838709677,0,3921.6129032258063,0,3590.3225806451615,0,3589.032258064516,0,3602.2580645161293,0,3913.870967741935,0,3963.548387096774,0,3636.451612903226,0,4248.064516129033,0,3912.9032258064517,0,0,0,?
2018-06-05 19:14:44.737293,3593.548387096774,0,3601.2903225806454,0,3550.967741935484,0,3707.7419354838707,0,3839.354838709677,0,3921.6129032258063,0,3590.3225806451615,0,3589.032258064516,0,3602.2580645161293,0,3913.870967741935,0,3963.548387096774,0,3636.451612903226,0,4248.064516129033,0,3912.9032258064517,0,0,0,?
2018-06-05 19:14:44.737293,3593.548387096774,0,3601.2903225806454,0,3550.967741935484,0,3707.7419354838707,0,3839.354838709677,0,3921.6129032258063,0,3590.3225806451615,0,3589.032258064516,0,3602.2580645161293,0,3913.870967741935,0,3963.548387096774,0,3636.451612903226,0,4248.064516129033,0,3912.9032258064517,0,0,0,?
2018-06-05 19:14:44.738293,3593.548387096774,0,3601.2903225806454,0,3550.967741935484,0,3707.7419354838707,0,3839.354838709677,0,3921.6129032258063,0,3590.3225806451615,0,3589.032258064516,0,3602.2580645161293,0,3913.870967741935,0,3963.548387096774,0,3636.451612903226,0,4248.064516129033,0,3912.9032258064517,0,0,0,?
2018-06-05 19:14:44.738293,3593.548387096774,0,3601.2903225806454,0,3550.967741935484,0,3707.7419354838707,0,3839.354838709677,0,3921.6129032258063,0,3590.3225806451615,0,3589.032258064516,0,3602.2580645161293,0,3913.870967741935,0,3963.548387096774,0,3636.451612903226,0,4248.064516129033,0,3912.9032258064517,0,0,0,?
2018-06-05 19:14:44.738293,3587.0967741935483,0,3594.8387096774195,0,3560.645161290323,0,3692.258064516129,0,3828.387096774193,0,3890.0,0,3586.1290322580644,0,3588.3870967741937,0,3603.8709677419356,0,3906.1290322580644,0,4007.4193548387098,0,3647.741935483871,0,4268.064516129033,0,3932.9032258064517,0,0,0,?
2018-06-05 19:14:44.759295,3587.0967741935483,0,3594.8387096774195,0,3560.645161290323,0,3692.258064516129,0,3828.387096774193,0,3890.0,0,3586.1290322580644,0,3588.3870967741937,0,3603.8709677419356,0,3906.1290322580644,0,4007.4193548387098,0,3647.741935483871,0,4268.064516129033,0,3932.9032258064517,0,0,0,?
2018-06-05 19:14:44.759295,3587.0967741935483,0,3594.8387096774195,0,3560.645161290323,0,3692.258064516129,0,3828.387096774193,0,3890.0,0,3586.1290322580644,0,3588.3870967741937,0,3603.8709677419356,0,3906.1290322580644,0,4007.4193548387098,0,3647.741935483871,0,4268.064516129033,0,3932.9032258064517,0,0,0,?
2018-06-05 19:14:44.764295,3587.0967741935483,0,3594.8387096774195,0,3560.645161290323,0,3692.258064516129,0,3828.387096774193,0,3890.0,0,3586.1290322580644,0,3588.3870967741937,0,3603.8709677419356,0,3906.1290322580644,0,4007.4193548387098,0,3647.741935483871,0,4268.064516129033,0,3932.9032258064517,0,0,0,?
2018-06-05 19:14:44.765296,3587.0967741935483,0,3594.8387096774195,0,3560.645161290323,0,3692.258064516129,0,3828.387096774193,0,3890.0,0,3586.1290322580644,0,3588.3870967741937,0,3603.8709677419356,0,3906.1290322580644,0,4007.4193548387098,0,3647.741935483871,0,4268.064516129033,0,3932.9032258064517,0,0,0,?
2018-06-05 19:14:44.776297,3605.161290322581,0,3605.8064516129034,0,3564.8387096774195,0,3699.032258064516,0,3841.9354838709673,0,3888.3870967741937,0,3604.8387096774195,0,3596.1290322580644,0,3602.2580645161293,0,3903.225806451613,0,4003.225806451613,0,3649.677419354839,0,4240.967741935484,0,3929.6774193548385,0,0,0,?
2018-06-05 19:14:44.796299,3602.2580645161293,0,3601.2903225806454,0,3562.5806451612902,0,3712.258064516129,0,3818.709677419355,0,3895.1612903225805,0,3601.2903225806454,0,3587.741935483871,0,3608.709677419355,0,3894.1935483870966,0,4016.7741935483873,0,3650.3225806451615,0,4259.032258064516,0,3885.1612903225805,0,0,0,?
2018-06-05 19:14:44.801299,3583.548387096774,0,3594.516129032258,0,3558.3870967741937,0,3684.838709677419,0,3843.2258064516127,0,3878.064516129032,0,3580.645161290323,0,3582.5806451612902,0,3613.8709677419356,0,3915.483870967742,0,4007.7419354838707,0,3658.709677419355,0,4230.967741935484,0,3932.9032258064517,0,0,0,?
2018-06-05 19:14:44.806300,3583.548387096774,0,3594.516129032258,0,3558.3870967741937,0,3684.838709677419,0,3843.2258064516127,0,3878.064516129032,0,3580.645161290323,0,3582.5806451612902,0,3613.8709677419356,0,3915.483870967742,0,4007.7419354838707,0,3658.709677419355,0,4230.967741935484,0,3932.9032258064517,0,0,0,?
2018-06-05 19:14:44.817301,3610.967741935484,0,3610.0,0,3564.193548387097,0,3708.064516129032,0,3821.935483870968,0,3906.451612903226,0,3602.9032258064517,0,3602.9032258064517,0,3610.0,0,3915.483870967742,0,4002.2580645161293,0,3659.032258064516,0,4260.0,0,3891.6129032258063,0,0,0,?
2018-06-05 19:14:44.817301,3590.967741935484,0,3598.709677419355,0,3558.064516129032,0,3690.322580645161,0,3826.451612903226,0,3893.548387096774,0,3590.0,0,3596.451612903226,0,3611.6129032258063,0,3910.3225806451615,0,3994.5161290322585,0,3657.741935483871,0,4212.25806451613,0,3944.8387096774195,0,0,0,?
2018-06-05 19:14:44.822301,3598.709677419355,0,3599.032258064516,0,3563.548387096774,0,3700.967741935484,0,3812.258064516129,0,3895.483870967742,0,3593.225806451613,0,3598.064516129032,0,3607.4193548387098,0,3904.1935483870966,0,3984.516129032258,0,3661.935483870968,0,4231.290322580646,0,3935.8064516129034,0,0,0,?
2018-06-05 19:14:44.833302,3598.709677419355,0,3599.032258064516,0,3563.548387096774,0,3700.967741935484,0,3812.258064516129,0,3895.483870967742,0,3593.225806451613,0,3598.064516129032,0,3607.4193548387098,0,3904.1935483870966,0,3984.516129032258,0,3661.935483870968,0,4231.290322580646,0,3935.8064516129034,0,0,0,?
2018-06-05 19:14:44.848304,3598.709677419355,0,3599.032258064516,0,3563.548387096774,0,3700.967741935484,0,3812.258064516129,0,3895.483870967742,0,3593.225806451613,0,3598.064516129032,0,3607.4193548387098,0,3904.1935483870966,0,3984.516129032258,0,3661.935483870968,0,4231.290322580646,0,3935.8064516129034,0,0,0,?
2018-06-05 19:14:44.848304,3598.709677419355,0,3599.032258064516,0,3563.548387096774,0,3700.967741935484,0,3812.258064516129,0,3895.483870967742,0,3593.225806451613,0,3598.064516129032,0,3607.4193548387098,0,3904.1935483870966,0,3984.516129032258,0,3661.935483870968,0,4231.290322580646,0,3935.8064516129034,0,0,0,?
2018-06-05 19:14:44.878307,3615.483870967742,0,3612.2580645161293,0,3575.8064516129034,0,3726.774193548387,0,3855.1612903225805,0,3936.7741935483873,0,3615.483870967742,0,3609.3548387096776,0,3618.709677419355,0,3882.5806451612902,0,3963.548387096774,0,3671.935483870968,0,4274.8387096774195,0,3898.7096774193546,0,0,0,?
2018-06-05 19:14:44.878307,3603.8709677419356,0,3611.6129032258063,0,3569.677419354839,0,3694.838709677419,0,3835.806451612903,0,3896.1290322580644,0,3583.8709677419356,0,3597.741935483871,0,3620.967741935484,0,3923.225806451613,0,3988.709677419355,0,3662.2580645161293,0,4249.354838709678,0,3952.9032258064517,0,0,0,?
2018-06-05 19:14:44.930312,3615.483870967742,0,3625.8064516129034,0,3581.935483870968,0,3723.870967741935,0,3818.3870967741937,0,3918.7096774193546,0,3611.6129032258063,0,3604.516129032258,0,3613.8709677419356,0,3904.8387096774195,0,3980.3225806451615,0,3662.2580645161293,0,4232.903225806452,0,3935.483870967742,0,0,0,?
2018-06-05 19:14:44.945314,3600.3225806451615,0,3601.935483870968,0,3570.967741935484,0,3699.354838709677,0,3840.322580645161,0,3880.6451612903224,0,3605.161290322581,0,3605.8064516129034,0,3609.677419354839,0,3948.3870967741937,0,4016.129032258065,0,3667.4193548387098,0,4262.903225806452,0,3911.2903225806454,0,0,0,?
2018-06-05 19:14:44.961315,3614.193548387097,0,3618.709677419355,0,3575.161290322581,0,3717.7419354838707,0,3819.032258064516,0,3900.6451612903224,0,3611.935483870968,0,3620.0,0,3613.8709677419356,0,3920.6451612903224,0,4025.161290322581,0,3671.935483870968,0,4228.387096774194,0,3930.0,0,0,0,?
2018-06-05 19:14:44.966316,3618.709677419355,0,3621.6129032258063,0,3573.225806451613,0,3699.6774193548385,0,3850.967741935484,0,3880.3225806451615,0,3607.4193548387098,0,3607.741935483871,0,3616.1290322580644,0,3924.1935483870966,0,4032.9032258064517,0,3670.6451612903224,0,4258.064516129033,0,3925.8064516129034,0,0,0,?
2018-06-05 19:14:44.987318,3611.935483870968,0,3614.516129032258,0,3570.0,0,3710.322580645161,0,3807.4193548387098,0,3886.7741935483873,0,3600.645161290323,0,3613.225806451613,0,3613.8709677419356,0,3888.7096774193546,0,4002.9032258064517,0,3671.2903225806454,0,4228.387096774194,0,3905.1612903225805,0,0,0,?
2018-06-05 19:14:44.993318,3611.935483870968,0,3614.516129032258,0,3570.0,0,3710.322580645161,0,3807.4193548387098,0,3886.7741935483873,0,3600.645161290323,0,3613.225806451613,0,3613.8709677419356,0,3888.7096774193546,0,4002.9032258064517,0,3671.2903225806454,0,4228.387096774194,0,3905.1612903225805,0,0,0,?
2018-06-05 19:14:45.029322,3611.935483870968,0,3614.516129032258,0,3570.0,0,3710.322580645161,0,3807.4193548387098,0,3886.7741935483873,0,3600.645161290323,0,3613.225806451613,0,3613.8709677419356,0,3888.7096774193546,0,4002.9032258064517,0,3671.2903225806454,0,4228.387096774194,0,3905.1612903225805,0,0,0,?
2018-06-05 19:14:45.039323,3628.709677419355,0,3621.6129032258063,0,3581.935483870968,0,3725.806451612903,0,3813.8709677419356,0,3918.064516129032,0,3626.7741935483873,0,3609.3548387096776,0,3621.935483870968,0,3878.064516129032,0,3984.8387096774195,0,3675.161290322581,0,4249.032258064516,0,3898.3870967741937,0,0,0,?
2018-06-05 19:14:45.039323,3609.677419354839,0,3612.5806451612902,0,3571.2903225806454,0,3706.1290322580644,0,3845.1612903225805,0,3910.3225806451615,0,3603.8709677419356,0,3606.1290322580644,0,3624.8387096774195,0,3903.8709677419356,0,4016.451612903226,0,3672.5806451612902,0,4218.064516129033,0,3945.1612903225805,0,0,0,?
2018-06-05 19:14:45.039323,3607.741935483871,0,3619.677419354839,0,3576.7741935483873,0,3710.0,0,3820.0,0,3906.7741935483873,0,3606.7741935483873,0,3613.225806451613,0,3624.8387096774195,0,3921.2903225806454,0,3969.677419354839,0,3678.064516129032,0,4240.645161290323,0,3920.967741935484,0,0,0,?
2018-06-05 19:14:45.039323,3588.387096774193,0,3581.6129032258063,0,3592.9032258064517,0,3723.870967741935,0,3850.6451612903224,0,3896.451612903226,0,3580.967741935484,0,3592.5806451612902,0,3604.838709677419,0,3916.451612903226,0,3987.741935483871,0,3652.258064516129,0,4230.967741935484,0,3935.483870967742,0,0,0,?
2018-06-05 19:14:45.039323,3588.387096774193,0,3581.6129032258063,0,3592.9032258064517,0,3723.870967741935,0,3850.6451612903224,0,3896.451612903226,0,3580.967741935484,0,3592.5806451612902,0,3604.838709677419,0,3916.451612903226,0,3987.741935483871,0,3652.258064516129,0,4230.967741935484,0,3935.483870967742,0,0,0,?
2018-06-05 19:14:45.039323,3588.387096774193,0,3581.6129032258063,0,3592.9032258064517,0,3723.870967741935,0,3850.6451612903224,0,3896.451612903226,0,3580.967741935484,0,3592.5806451612902,0,3604.838709677419,0,3916.451612903226,0,3987.741935483871,0,3652.258064516129,0,4230.967741935484,0,3935.483870967742,0,0,0,?
2018-06-05 19:14:45.039323,3588.387096774193,0,3581.6129032258063,0,3592.9032258064517,0,3723.870967741935,0,3850.6451612903224,0,3896.451612903226,0,3580.967741935484,0,3592.5806451612902,0,3604.838709677419,0,3916.451612903226,0,3987.741935483871,0,3652.258064516129,0,4230.967741935484,0,3935.483870967742,0,0,0,?
2018-06-05 19:14:45.039323,3588.387096774193,0,3581.6129032258063,0,3592.9032258064517,0,3723.870967741935,0,3850.6451612903224,0,3896.451612903226,0,3580.967741935484,0,3592.5806451612902,0,3604.838709677419,0,3916.451612903226,0,3987.741935483871,0,3652.258064516129,0,4230.967741935484,0,3935.483870967742,0,0,0,?
2018-06-05 19:14:45.039323,3588.387096774193,0,3581.6129032258063,0,3592.9032258064517,0,3723.870967741935,0,3850.6451612903224,0,3896.451612903226,0,3580.967741935484,0,3592.5806451612902,0,3604.838709677419,0,3916.451612903226,0,3987.741935483871,0,3652.258064516129,0,4230.967741935484,0,3935.483870967742,0,0,0,?
2018-06-05 19:14:45.039323,3588.387096774193,0,3581.6129032258063,0,3592.9032258064517,0,3723.870967741935,0,3850.6451612903224,0,3896.451612903226,0,3580.967741935484,0,3592.5806451612902,0,3604.838709677419,0,3916.451612903226,0,3987.741935483871,0,3652.258064516129,0,4230.967741935484,0,3935.483870967742,0,0,0,?
2018-06-05 19:14:45.039323,3588.387096774193,0,3581.6129032258063,0,3592.9032258064517,0,3723.870967741935,0,3850.6451612903224,0,3896.451612903226,0,3580.967741935484,0,3592.5806451612902,0,3604.838709677419,0,3916.451612903226,0,3987.741935483871,0,3652.258064516129,0,4230.967741935484,0,3935.483870967742,0,0,0,?
2018-06-05 19:14:45.039323,3588.387096774193,0,3581.6129032258063,0,3592.9032258064517,0,3723.870967741935,0,3850.6451612903224,0,3896.451612903226,0,3580.967741935484,0,3592.5806451612902,0,3604.838709677419,0,3916.451612903226,0,3987.741935483871,0,3652.258064516129,0,4230.967741935484,0,3935.483870967742,0,0,0,?
2018-06-05 19:14:45.039323,3588.387096774193,0,3581.6129032258063,0,3592.9032258064517,0,3723.870967741935,0,3850.6451612903224,0,3896.451612903226,0,3580.967741935484,0,3592.5806451612902,0,3604.838709677419,0,3916.451612903226,0,3987.741935483871,0,3652.258064516129,0,4230.967741935484,0,3935.483870967742,0,0,0,?
2018-06-05 19:14:45.039323,3588.387096774193,0,3581.6129032258063,0,3592.9032258064517,0,3723.870967741935,0,3850.6451612903224,0,3896.451612903226,0,3580.967741935484,0,3592.5806451612902,0,3604.838709677419,0,3916.451612903226,0,3987.741935483871,0,3652.258064516129,0,4230.967741935484,0,3935.483870967742,0,0,0,?
2018-06-05 19:14:45.039323,3588.387096774193,0,3581.6129032258063,0,3592.9032258064517,0,3723.870967741935,0,3850.6451612903224,0,3896.451612903226,0,3580.967741935484,0,3592.5806451612902,0,3604.838709677419,0,3916.451612903226,0,3987.741935483871,0,3652.258064516129,0,4230.967741935484,0,3935.483870967742,0,0,0,?
2018-06-05 19:14:45.040323,3588.387096774193,0,3581.6129032258063,0,3592.9032258064517,0,3723.870967741935,0,3850.6451612903224,0,3896.451612903226,0,3580.967741935484,0,3592.5806451612902,0,3604.838709677419,0,3916.451612903226,0,3987.741935483871,0,3652.258064516129,0,4230.967741935484,0,3935.483870967742,0,0,0,?
2018-06-05 19:14:45.050324,3588.387096774193,0,3581.6129032258063,0,3592.9032258064517,0,3723.870967741935,0,3850.6451612903224,0,3896.451612903226,0,3580.967741935484,0,3592.5806451612902,0,3604.838709677419,0,3916.451612903226,0,3987.741935483871,0,3652.258064516129,0,4230.967741935484,0,3935.483870967742,0,0,0,?
2018-06-05 19:14:45.085328,3588.387096774193,0,3581.6129032258063,0,3592.9032258064517,0,3723.870967741935,0,3850.6451612903224,0,3896.451612903226,0,3580.967741935484,0,3592.5806451612902,0,3604.838709677419,0,3916.451612903226,0,3987.741935483871,0,3652.258064516129,0,4230.967741935484,0,3935.483870967742,0,0,0,?
2018-06-05 19:14:45.085328,3588.387096774193,0,3581.6129032258063,0,3592.9032258064517,0,3723.870967741935,0,3850.6451612903224,0,3896.451612903226,0,3580.967741935484,0,3592.5806451612902,0,3604.838709677419,0,3916.451612903226,0,3987.741935483871,0,3652.258064516129,0,4230.967741935484,0,3935.483870967742,0,0,0,?
2018-06-05 19:14:45.105330,3588.387096774193,0,3581.6129032258063,0,3592.9032258064517,0,3723.870967741935,0,3850.6451612903224,0,3896.451612903226,0,3580.967741935484,0,3592.5806451612902,0,3604.838709677419,0,3916.451612903226,0,3987.741935483871,0,3652.258064516129,0,4230.967741935484,0,3935.483870967742,0,0,0,?
2018-06-05 19:14:45.106330,3588.387096774193,0,3581.6129032258063,0,3592.9032258064517,0,3723.870967741935,0,3850.6451612903224,0,3896.451612903226,0,3580.967741935484,0,3592.5806451612902,0,3604.838709677419,0,3916.451612903226,0,3987.741935483871,0,3652.258064516129,0,4230.967741935484,0,3935.483870967742,0,0,0,?
2018-06-05 19:14:45.112330,3588.387096774193,0,3581.6129032258063,0,3592.9032258064517,0,3723.870967741935,0,3850.6451612903224,0,3896.451612903226,0,3580.967741935484,0,3592.5806451612902,0,3604.838709677419,0,3916.451612903226,0,3987.741935483871,0,3652.258064516129,0,4230.967741935484,0,3935.483870967742,0,0,0,?
2018-06-05 19:14:45.112330,3588.387096774193,0,3581.6129032258063,0,3592.9032258064517,0,3723.870967741935,0,3850.6451612903224,0,3896.451612903226,0,3580.967741935484,0,3592.5806451612902,0,3604.838709677419,0,3916.451612903226,0,3987.741935483871,0,3652.258064516129,0,4230.967741935484,0,3935.483870967742,0,0,0,?
2018-06-05 19:14:45.117331,3588.387096774193,0,3581.6129032258063,0,3592.9032258064517,0,3723.870967741935,0,3850.6451612903224,0,3896.451612903226,0,3580.967741935484,0,3592.5806451612902,0,3604.838709677419,0,3916.451612903226,0,3987.741935483871,0,3652.258064516129,0,4230.967741935484,0,3935.483870967742,0,0,0,?
2018-06-05 19:14:45.117331,3605.1612903225805,0,3610.322580645161,0,3618.064516129032,0,3715.8064516129034,0,3836.7741935483873,0,3907.741935483871,0,3600.6451612903224,0,3597.0967741935483,0,3606.1290322580644,0,3903.8709677419356,0,4002.5806451612902,0,3660.0,0,4228.064516129032,0,3926.451612903226,0,0,0,?
2018-06-05 19:14:45.117331,3605.1612903225805,0,3610.322580645161,0,3618.064516129032,0,3715.8064516129034,0,3836.7741935483873,0,3907.741935483871,0,3600.6451612903224,0,3597.0967741935483,0,3606.1290322580644,0,3903.8709677419356,0,4002.5806451612902,0,3660.0,0,4228.064516129032,0,3926.451612903226,0,0,0,?
2018-06-05 19:14:45.128332,3590.6451612903224,0,3591.6129032258063,0,3601.935483870968,0,3685.1612903225805,0,3852.258064516129,0,3919.3548387096776,0,3582.5806451612902,0,3595.483870967742,0,3600.967741935484,0,3934.1935483870966,0,3989.0322580645166,0,3660.6451612903224,0,4255.806451612903,0,3911.612903225807,0,0,0,?
2018-06-05 19:14:45.153334,3590.6451612903224,0,3591.6129032258063,0,3601.935483870968,0,3685.1612903225805,0,3852.258064516129,0,3919.3548387096776,0,3582.5806451612902,0,3595.483870967742,0,3600.967741935484,0,3934.1935483870966,0,3989.0322580645166,0,3660.6451612903224,0,4255.806451612903,0,3911.612903225807,0,0,0,?
2018-06-05 19:14:45.153334,3590.6451612903224,0,3591.6129032258063,0,3601.935483870968,0,3685.1612903225805,0,3852.258064516129,0,3919.3548387096776,0,3582.5806451612902,0,3595.483870967742,0,3600.967741935484,0,3934.1935483870966,0,3989.0322580645166,0,3660.6451612903224,0,4255.806451612903,0,3911.612903225807,0,0,0,?
2018-06-05 19:14:45.153334,3590.6451612903224,0,3591.6129032258063,0,3601.935483870968,0,3685.1612903225805,0,3852.258064516129,0,3919.3548387096776,0,3582.5806451612902,0,3595.483870967742,0,3600.967741935484,0,3934.1935483870966,0,3989.0322580645166,0,3660.6451612903224,0,4255.806451612903,0,3911.612903225807,0,0,0,?
2018-06-05 19:14:45.173336,3590.6451612903224,0,3591.6129032258063,0,3601.935483870968,0,3685.1612903225805,0,3852.258064516129,0,3919.3548387096776,0,3582.5806451612902,0,3595.483870967742,0,3600.967741935484,0,3934.1935483870966,0,3989.0322580645166,0,3660.6451612903224,0,4255.806451612903,0,3911.612903225807,0,0,0,?
2018-06-05 19:14:45.173336,3602.5806451612902,0,3604.838709677419,0,3613.548387096774,0,3683.548387096774,0,3852.258064516129,0,3907.0967741935483,0,3601.6129032258063,0,3592.5806451612902,0,3599.354838709677,0,3946.451612903226,0,4008.0645161290327,0,3650.0,0,4227.41935483871,0,3924.5161290322585,0,0,0,?
2018-06-05 19:14:45.179337,3602.5806451612902,0,3604.838709677419,0,3613.548387096774,0,3683.548387096774,0,3852.258064516129,0,3907.0967741935483,0,3601.6129032258063,0,3592.5806451612902,0,3599.354838709677,0,3946.451612903226,0,4008.0645161290327,0,3650.0,0,4227.41935483871,0,3924.5161290322585,0,0,0,?
2018-06-05 19:14:45.204339,3607.4193548387098,0,3609.032258064516,0,3625.483870967742,0,3680.0,0,3829.6774193548385,0,3895.1612903225805,0,3591.290322580645,0,3600.322580645161,0,3605.1612903225805,0,3921.6129032258063,0,4045.483870967742,0,3655.806451612903,0,4267.096774193549,0,3947.741935483871,0,0,0,?
2018-06-05 19:14:45.204339,3617.0967741935483,0,3613.548387096774,0,3619.677419354839,0,3698.709677419355,0,3837.0967741935483,0,3900.6451612903224,0,3605.1612903225805,0,3598.387096774193,0,3607.7419354838707,0,3910.967741935484,0,4038.3870967741937,0,3655.483870967742,0,4271.935483870968,0,3921.6129032258063,0,0,0,?
2018-06-05 19:14:45.204339,3617.0967741935483,0,3613.548387096774,0,3619.677419354839,0,3698.709677419355,0,3837.0967741935483,0,3900.6451612903224,0,3605.1612903225805,0,3598.387096774193,0,3607.7419354838707,0,3910.967741935484,0,4038.3870967741937,0,3655.483870967742,0,4271.935483870968,0,3921.6129032258063,0,0,0,?
2018-06-05 19:14:45.204339,3617.0967741935483,0,3613.548387096774,0,3619.677419354839,0,3698.709677419355,0,3837.0967741935483,0,3900.6451612903224,0,3605.1612903225805,0,3598.387096774193,0,3607.7419354838707,0,3910.967741935484,0,4038.3870967741937,0,3655.483870967742,0,4271.935483870968,0,3921.6129032258063,0,0,0,?
2018-06-05 19:14:45.220341,3618.387096774193,0,3616.774193548387,0,3624.193548387097,0,3710.3225806451615,0,3849.3548387096776,0,3932.9032258064517,0,3610.0,0,3605.806451612903,0,3610.0,0,3897.0967741935483,0,3987.4193548387098,0,3673.548387096774,0,4263.548387096775,0,3901.6129032258063,0,0,0,?
2018-06-05 19:14:45.220341,3618.387096774193,0,3616.774193548387,0,3624.193548387097,0,3710.3225806451615,0,3849.3548387096776,0,3932.9032258064517,0,3610.0,0,3605.806451612903,0,3610.0,0,3897.0967741935483,0,3987.4193548387098,0,3673.548387096774,0,4263.548387096775,0,3901.6129032258063,0,0,0,?
2018-06-05 19:14:45.263345,3598.7096774193546,0,3608.387096774193,0,3622.5806451612902,0,3693.225806451613,0,3826.451612903226,0,3917.0967741935483,0,3593.2258064516127,0,3591.6129032258063,0,3608.7096774193546,0,3912.5806451612902,0,4027.741935483871,0,3663.870967741935,0,4230.645161290323,0,3940.3225806451615,0,0,0,?
2018-06-05 19:14:45.263345,3618.387096774193,0,3615.1612903225805,0,3626.451612903226,0,3718.064516129032,0,3844.8387096774195,0,3905.8064516129034,0,3616.451612903226,0,3606.774193548387,0,3611.935483870968,0,3892.5806451612902,0,3987.741935483871,0,3663.2258064516127,0,4270.322580645162,0,3943.2258064516127,0,0,0,?
2018-06-05 19:14:45.263345,3622.9032258064517,0,3624.516129032258,0,3584.516129032258,0,3731.2903225806454,0,3846.1290322580644,0,3920.645161290323,0,3617.0967741935483,0,3609.032258064516,0,3623.870967741935,0,3890.0,0,3980.6451612903224,0,3673.870967741935,0,4246.774193548387,0,3933.548387096774,0,0,0,?
2018-06-05 19:14:45.264345,3619.6774193548385,0,3624.838709677419,0,3587.4193548387098,0,3724.516129032258,0,3847.4193548387098,0,3917.741935483871,0,3626.1290322580644,0,3620.6451612903224,0,3604.1935483870966,0,3915.483870967742,0,3987.4193548387098,0,3666.774193548387,0,4250.322580645162,0,3951.935483870968,0,0,0,?
2018-06-05 19:14:45.264345,3625.1612903225805,0,3627.0967741935483,0,3580.6451612903224,0,3712.9032258064517,0,3851.2903225806454,0,3930.967741935484,0,3616.774193548387,0,3614.838709677419,0,3628.387096774193,0,3918.7096774193546,0,3996.451612903226,0,3674.516129032258,0,4261.935483870968,0,3937.741935483871,0,0,0,?
2018-06-05 19:14:45.284347,3607.4193548387098,0,3618.7096774193546,0,3623.8709677419356,0,3680.3225806451615,0,3822.2580645161293,0,3893.8709677419356,0,3600.967741935484,0,3609.032258064516,0,3615.483870967742,0,3946.7741935483873,0,4047.0967741935488,0,3665.1612903225805,0,4227.41935483871,0,3930.967741935484,0,0,0,?
2018-06-05 19:14:45.294348,3610.6451612903224,0,3618.064516129032,0,3625.161290322581,0,3696.451612903226,0,3821.935483870968,0,3892.2580645161293,0,3607.7419354838707,0,3610.0,0,3625.483870967742,0,3936.451612903226,0,4018.3870967741937,0,3668.387096774193,0,4262.25806451613,0,3934.8387096774195,0,0,0,?
2018-06-05 19:14:45.299349,3619.354838709677,0,3613.548387096774,0,3586.451612903226,0,3695.1612903225805,0,3838.709677419355,0,3905.483870967742,0,3609.032258064516,0,3612.5806451612902,0,3624.516129032258,0,3919.6774193548385,0,4012.5806451612902,0,3680.0,0,4253.870967741936,0,3928.3870967741937,0,0,0,?
2018-06-05 19:14:45.316351,3619.354838709677,0,3613.548387096774,0,3586.451612903226,0,3695.1612903225805,0,3838.709677419355,0,3905.483870967742,0,3609.032258064516,0,3612.5806451612902,0,3624.516129032258,0,3919.6774193548385,0,4012.5806451612902,0,3680.0,0,4253.870967741936,0,3928.3870967741937,0,0,0,?
2018-06-05 19:14:45.322351,3619.354838709677,0,3613.548387096774,0,3586.451612903226,0,3695.1612903225805,0,3838.709677419355,0,3905.483870967742,0,3609.032258064516,0,3612.5806451612902,0,3624.516129032258,0,3919.6774193548385,0,4012.5806451612902,0,3680.0,0,4253.870967741936,0,3928.3870967741937,0,0,0,?
2018-06-05 19:14:45.322351,3619.354838709677,0,3613.548387096774,0,3586.451612903226,0,3695.1612903225805,0,3838.709677419355,0,3905.483870967742,0,3609.032258064516,0,3612.5806451612902,0,3624.516129032258,0,3919.6774193548385,0,4012.5806451612902,0,3680.0,0,4253.870967741936,0,3928.3870967741937,0,0,0,?
2018-06-05 19:14:45.322351,3619.354838709677,0,3613.548387096774,0,3586.451612903226,0,3695.1612903225805,0,3838.709677419355,0,3905.483870967742,0,3609.032258064516,0,3612.5806451612902,0,3624.516129032258,0,3919.6774193548385,0,4012.5806451612902,0,3680.0,0,4253.870967741936,0,3928.3870967741937,0,0,0,?
2018-06-05 19:14:45.323351,3619.354838709677,0,3613.548387096774,0,3586.451612903226,0,3695.1612903225805,0,3838.709677419355,0,3905.483870967742,0,3609.032258064516,0,3612.5806451612902,0,3624.516129032258,0,3919.6774193548385,0,4012.5806451612902,0,3680.0,0,4253.870967741936,0,3928.3870967741937,0,0,0,?
2018-06-05 19:14:45.330352,3624.516129032258,0,3621.290322580645,0,3588.064516129032,0,3710.967741935484,0,3844.516129032258,0,3929.032258064516,0,3605.806451612903,0,3617.7419354838707,0,3624.838709677419,0,3908.3870967741937,0,3973.8709677419356,0,3679.032258064516,0,4254.5161290322585,0,3914.516129032258,0,0,0,?
2018-06-05 19:14:45.356355,3610.967741935484,0,3620.967741935484,0,3587.7419354838707,0,3711.2903225806454,0,3833.8709677419356,0,3946.7741935483873,0,3615.1612903225805,0,3616.451612903226,0,3627.0967741935483,0,3908.7096774193546,0,3980.3225806451615,0,3683.870967741935,0,4266.451612903226,0,3907.741935483871,0,0,0,?
2018-06-05 19:14:45.356355,3610.967741935484,0,3620.967741935484,0,3587.7419354838707,0,3711.2903225806454,0,3833.8709677419356,0,3946.7741935483873,0,3615.1612903225805,0,3616.451612903226,0,3627.0967741935483,0,3908.7096774193546,0,3980.3225806451615,0,3683.870967741935,0,4266.451612903226,0,3907.741935483871,0,0,0,?
2018-06-05 19:14:45.362355,3617.0967741935483,0,3628.064516129032,0,3594.838709677419,0,3705.1612903225805,0,3815.8064516129034,0,3928.7096774193546,0,3615.806451612903,0,3622.5806451612902,0,3630.0,0,3941.6129032258063,0,4006.7741935483873,0,3683.870967741935,0,4265.806451612903,0,3935.161290322581,0,0,0,?
2018-06-05 19:14:45.362355,3617.0967741935483,0,3628.064516129032,0,3594.838709677419,0,3705.1612903225805,0,3815.8064516129034,0,3928.7096774193546,0,3615.806451612903,0,3622.5806451612902,0,3630.0,0,3941.6129032258063,0,4006.7741935483873,0,3683.870967741935,0,4265.806451612903,0,3935.161290322581,0,0,0,?
2018-06-05 19:14:45.430362,3637.0967741935483,0,3638.064516129032,0,3597.4193548387098,0,3724.516129032258,0,3840.3225806451615,0,3904.193548387097,0,3636.1290322580644,0,3630.967741935484,0,3632.5806451612902,0,3931.935483870968,0,4002.5806451612902,0,3689.032258064516,0,4251.935483870968,0,3923.225806451613,0,0,0,?
2018-06-05 19:14:45.430362,3636.1290322580644,0,3639.354838709677,0,3586.774193548387,0,3724.8387096774195,0,3861.2903225806454,0,3936.451612903226,0,3641.6129032258063,0,3631.935483870968,0,3635.1612903225805,0,3940.0,0,4023.8709677419356,0,3683.548387096774,0,4270.0,0,3905.161290322581,0,0,0,?
2018-06-05 19:14:45.430362,3620.967741935484,0,3627.0967741935483,0,3585.483870967742,0,3700.3225806451615,0,3824.8387096774195,0,3891.2903225806454,0,3613.548387096774,0,3619.6774193548385,0,3629.6774193548385,0,3931.935483870968,0,4029.6774193548385,0,3687.4193548387098,0,4273.225806451614,0,3939.0322580645166,0,0,0,?
2018-06-05 19:14:45.430362,3612.9032258064517,0,3623.548387096774,0,3589.032258064516,0,3700.967741935484,0,3832.2580645161293,0,3892.9032258064517,0,3613.548387096774,0,3612.9032258064517,0,3636.1290322580644,0,3912.2580645161293,0,4041.935483870968,0,3692.5806451612902,0,4264.1935483870975,0,3917.4193548387098,0,0,0,?
2018-06-05 19:14:45.430362,3629.032258064516,0,3628.7096774193546,0,3595.483870967742,0,3705.8064516129034,0,3837.741935483871,0,3887.741935483871,0,3621.6129032258063,0,3624.838709677419,0,3646.451612903226,0,3926.1290322580644,0,3999.0322580645166,0,3690.967741935484,0,4241.290322580646,0,3947.741935483871,0,0,0,?
2018-06-05 19:14:45.430362,3635.483870967742,0,3643.548387096774,0,3606.1290322580644,0,3721.6129032258063,0,3833.225806451613,0,3936.7741935483873,0,3632.258064516129,0,3634.1935483870966,0,3643.2258064516127,0,3941.935483870968,0,4007.741935483871,0,3694.516129032258,0,4244.8387096774195,0,3933.5483870967746,0,0,0,?
2018-06-05 19:14:45.445364,3635.483870967742,0,3643.548387096774,0,3606.1290322580644,0,3721.6129032258063,0,3833.225806451613,0,3936.7741935483873,0,3632.258064516129,0,3634.1935483870966,0,3643.2258064516127,0,3941.935483870968,0,4007.741935483871,0,3694.516129032258,0,4244.8387096774195,0,3933.5483870967746,0,0,0,?
2018-06-05 19:14:45.445364,3635.483870967742,0,3643.548387096774,0,3606.1290322580644,0,3721.6129032258063,0,3833.225806451613,0,3936.7741935483873,0,3632.258064516129,0,3634.1935483870966,0,3643.2258064516127,0,3941.935483870968,0,4007.741935483871,0,3694.516129032258,0,4244.8387096774195,0,3933.5483870967746,0,0,0,?
2018-06-05 19:14:45.445364,3635.483870967742,0,3643.548387096774,0,3606.1290322580644,0,3721.6129032258063,0,3833.225806451613,0,3936.7741935483873,0,3632.258064516129,0,3634.1935483870966,0,3643.2258064516127,0,3941.935483870968,0,4007.741935483871,0,3694.516129032258,0,4244.8387096774195,0,3933.5483870967746,0,0,0,?
2018-06-05 19:14:45.445364,3635.483870967742,0,3643.548387096774,0,3606.1290322580644,0,3721.6129032258063,0,3833.225806451613,0,3936.7741935483873,0,3632.258064516129,0,3634.1935483870966,0,3643.2258064516127,0,3941.935483870968,0,4007.741935483871,0,3694.516129032258,0,4244.8387096774195,0,3933.5483870967746,0,0,0,?
2018-06-05 19:14:45.467366,3635.483870967742,0,3643.548387096774,0,3606.1290322580644,0,3721.6129032258063,0,3833.225806451613,0,3936.7741935483873,0,3632.258064516129,0,3634.1935483870966,0,3643.2258064516127,0,3941.935483870968,0,4007.741935483871,0,3694.516129032258,0,4244.8387096774195,0,3933.5483870967746,0,0,0,?
2018-06-05 19:14:45.467366,3635.483870967742,0,3643.548387096774,0,3606.1290322580644,0,3721.6129032258063,0,3833.225806451613,0,3936.7741935483873,0,3632.258064516129,0,3634.1935483870966,0,3643.2258064516127,0,3941.935483870968,0,4007.741935483871,0,3694.516129032258,0,4244.8387096774195,0,3933.5483870967746,0,0,0,?
2018-06-05 19:14:45.473366,3635.483870967742,0,3643.548387096774,0,3606.1290322580644,0,3721.6129032258063,0,3833.225806451613,0,3936.7741935483873,0,3632.258064516129,0,3634.1935483870966,0,3643.2258064516127,0,3941.935483870968,0,4007.741935483871,0,3694.516129032258,0,4244.8387096774195,0,3933.5483870967746,0,0,0,?
2018-06-05 19:14:45.473366,3635.483870967742,0,3643.548387096774,0,3606.1290322580644,0,3721.6129032258063,0,3833.225806451613,0,3936.7741935483873,0,3632.258064516129,0,3634.1935483870966,0,3643.2258064516127,0,3941.935483870968,0,4007.741935483871,0,3694.516129032258,0,4244.8387096774195,0,3933.5483870967746,0,0,0,?
2018-06-05 19:14:45.489368,3647.4193548387098,0,3648.064516129032,0,3602.258064516129,0,3728.3870967741937,0,3857.741935483871,0,3930.967741935484,0,3649.354838709677,0,3630.322580645161,0,3653.870967741935,0,3951.6129032258063,0,4005.8064516129034,0,3692.9032258064512,0,4259.032258064516,0,3922.9032258064517,0,0,0,?
2018-06-05 19:14:45.490368,3647.4193548387098,0,3648.064516129032,0,3602.258064516129,0,3728.3870967741937,0,3857.741935483871,0,3930.967741935484,0,3649.354838709677,0,3630.322580645161,0,3653.870967741935,0,3951.6129032258063,0,4005.8064516129034,0,3692.9032258064512,0,4259.032258064516,0,3922.9032258064517,0,0,0,?
2018-06-05 19:14:45.497369,3632.258064516129,0,3639.6774193548385,0,3598.064516129032,0,3723.548387096774,0,3846.1290322580644,0,3904.8387096774195,0,3632.258064516129,0,3634.838709677419,0,3651.935483870968,0,3908.3870967741937,0,4026.451612903226,0,3695.483870967742,0,4240.645161290323,0,3916.7741935483873,0,0,0,?
2018-06-05 19:14:45.534372,3654.516129032258,0,3645.483870967742,0,3608.387096774193,0,3728.709677419355,0,3860.967741935484,0,3914.516129032258,0,3648.7096774193546,0,3650.6451612903224,0,3650.0,0,3933.8709677419356,0,4036.129032258065,0,3706.774193548387,0,4252.258064516129,0,3936.7741935483873,0,0,0,?
2018-06-05 19:14:45.555375,3637.0967741935483,0,3644.516129032258,0,3608.7096774193546,0,3707.4193548387098,0,3845.8064516129034,0,3907.0967741935483,0,3631.290322580645,0,3640.0,0,3649.6774193548385,0,3903.225806451613,0,4001.2903225806454,0,3702.258064516129,0,4263.225806451614,0,3919.0322580645166,0,0,0,?
2018-06-05 19:14:45.576377,3650.6451612903224,0,3655.806451612903,0,3612.258064516129,0,3737.0967741935483,0,3878.3870967741937,0,3940.967741935484,0,3646.774193548387,0,3643.2258064516127,0,3652.258064516129,0,3910.0,0,4007.4193548387098,0,3700.322580645161,0,4241.612903225807,0,3920.6451612903224,0,0,0,?
2018-06-05 19:14:45.581377,3638.7096774193546,0,3639.6774193548385,0,3598.064516129032,0,3710.6451612903224,0,3848.709677419355,0,3918.064516129032,0,3627.4193548387098,0,3634.1935483870966,0,3645.483870967742,0,3932.2580645161293,0,4000.0000000000005,0,3702.258064516129,0,4254.5161290322585,0,3942.5806451612902,0,0,0,?
2018-06-05 19:14:45.581377,3662.5806451612902,0,3661.290322580645,0,3616.774193548387,0,3750.6451612903224,0,3877.0967741935483,0,3919.677419354839,0,3659.032258064516,0,3650.0,0,3650.6451612903224,0,3906.1290322580644,0,3980.645161290323,0,3708.7096774193546,0,4235.1612903225805,0,3915.483870967742,0,0,0,?
2018-06-05 19:14:45.602379,3652.5806451612902,0,3653.2258064516127,0,3613.2258064516127,0,3750.967741935484,0,3868.709677419355,0,3922.2580645161293,0,3656.451612903226,0,3654.838709677419,0,3660.322580645161,0,3904.1935483870966,0,3977.4193548387098,0,3700.6451612903224,0,4244.5161290322585,0,3945.8064516129034,0,0,0,?
2018-06-05 19:14:45.608380,3652.5806451612902,0,3653.2258064516127,0,3613.2258064516127,0,3750.967741935484,0,3868.709677419355,0,3922.2580645161293,0,3656.451612903226,0,3654.838709677419,0,3660.322580645161,0,3904.1935483870966,0,3977.4193548387098,0,3700.6451612903224,0,4244.5161290322585,0,3945.8064516129034,0,0,0,?
2018-06-05 19:14:45.628382,3640.0,0,3640.322580645161,0,3606.774193548387,0,3706.451612903226,0,3814.516129032258,0,3941.2903225806454,0,3635.806451612903,0,3638.7096774193546,0,3652.258064516129,0,3942.9032258064517,0,3986.7741935483873,0,3700.0,0,4267.096774193549,0,3934.5161290322585,0,0,0,?
2018-06-05 19:14:45.628382,3614.193548387097,0,3619.032258064516,0,3617.4193548387098,0,3749.3548387096776,0,3863.225806451613,0,3931.2903225806454,0,3615.8064516129034,0,3650.6451612903224,0,3655.1612903225805,0,3917.741935483871,0,4010.3225806451615,0,3711.290322580645,0,4270.645161290323,0,3943.548387096774,0,0,0,?
2018-06-05 19:14:45.654384,3640.0,0,3652.9032258064517,0,3600.0,0,3712.2580645161293,0,3836.1290322580644,0,3921.6129032258063,0,3637.4193548387098,0,3642.258064516129,0,3659.032258064516,0,3926.7741935483873,0,4012.9032258064517,0,3710.0,0,4232.580645161291,0,3957.4193548387098,0,0,0,?
2018-06-05 19:14:45.659385,3649.354838709677,0,3661.6129032258063,0,3626.451612903226,0,3736.451612903226,0,3870.0,0,3904.8387096774195,0,3660.967741935484,0,3653.548387096774,0,3661.6129032258063,0,3951.935483870968,0,3992.5806451612907,0,3709.354838709677,0,4264.193548387097,0,3922.5806451612907,0,0,0,?
2018-06-05 19:14:45.674386,3656.1290322580644,0,3616.451612903226,0,3621.290322580645,0,3744.193548387097,0,3876.451612903226,0,3939.6774193548385,0,3659.032258064516,0,3652.258064516129,0,3654.1935483870966,0,3948.3870967741937,0,4042.9032258064517,0,3720.0,0,4268.064516129032,0,3916.7741935483873,0,0,0,?
2018-06-05 19:14:45.679387,3648.064516129032,0,3653.548387096774,0,3616.774193548387,0,3723.548387096774,0,3851.6129032258063,0,3912.9032258064517,0,3646.451612903226,0,3652.5806451612902,0,3657.4193548387098,0,3909.677419354839,0,4021.935483870968,0,3719.354838709677,0,4236.451612903226,0,3920.3225806451615,0,0,0,?
2018-06-05 19:14:45.710390,3649.354838709677,0,3656.451612903226,0,3625.483870967742,0,3738.064516129032,0,3878.3870967741937,0,3932.2580645161293,0,3658.064516129032,0,3653.2258064516127,0,3661.6129032258063,0,3941.935483870968,0,4008.3870967741937,0,3720.6451612903224,0,4235.806451612903,0,3944.8387096774195,0,0,0,?
2018-06-05 19:14:45.721391,3658.387096774193,0,3662.9032258064517,0,3616.1290322580644,0,3735.8064516129034,0,3874.516129032258,0,3922.5806451612902,0,3652.5806451612902,0,3647.7419354838707,0,3620.3225806451615,0,3944.516129032258,0,3988.3870967741937,0,3725.483870967742,0,4226.451612903226,0,3951.6129032258063,0,0,0,?
2018-06-05 19:14:45.743393,3620.6451612903224,0,3613.225806451613,0,3628.387096774193,0,3741.935483870968,0,3859.6774193548385,0,3953.2258064516127,0,3614.193548387097,0,3613.548387096774,0,3619.3548387096776,0,3916.7741935483873,0,3981.935483870968,0,3723.2258064516127,0,4228.064516129032,0,3939.3548387096776,0,0,0,?
2018-06-05 19:14:45.773396,3656.451612903226,0,3662.5806451612902,0,3629.354838709677,0,3733.8709677419356,0,3850.6451612903224,0,3904.193548387097,0,3654.1935483870966,0,3653.2258064516127,0,3621.935483870968,0,3938.3870967741937,0,3987.4193548387098,0,3722.258064516129,0,4260.322580645162,0,3920.0000000000005,0,0,0,?
2018-06-05 19:14:45.793398,3625.8064516129034,0,3620.6451612903224,0,3647.4193548387098,0,3745.8064516129034,0,3871.6129032258063,0,3925.1612903225805,0,3620.967741935484,0,3623.225806451613,0,3631.2903225806454,0,3937.741935483871,0,4001.6129032258063,0,3684.8387096774195,0,4251.935483870968,0,3955.161290322581,0,0,0,?
2018-06-05 19:14:45.793398,3625.8064516129034,0,3620.6451612903224,0,3647.4193548387098,0,3745.8064516129034,0,3871.6129032258063,0,3925.1612903225805,0,3620.967741935484,0,3623.225806451613,0,3631.2903225806454,0,3937.741935483871,0,4001.6129032258063,0,3684.8387096774195,0,4251.935483870968,0,3955.161290322581,0,0,0,?
2018-06-05 19:14:45.793398,3625.8064516129034,0,3620.6451612903224,0,3647.4193548387098,0,3745.8064516129034,0,3871.6129032258063,0,3925.1612903225805,0,3620.967741935484,0,3623.225806451613,0,3631.2903225806454,0,3937.741935483871,0,4001.6129032258063,0,3684.8387096774195,0,4251.935483870968,0,3955.161290322581,0,0,0,?
2018-06-05 19:14:45.793398,3625.8064516129034,0,3620.6451612903224,0,3647.4193548387098,0,3745.8064516129034,0,3871.6129032258063,0,3925.1612903225805,0,3620.967741935484,0,3623.225806451613,0,3631.2903225806454,0,3937.741935483871,0,4001.6129032258063,0,3684.8387096774195,0,4251.935483870968,0,3955.161290322581,0,0,0,?
2018-06-05 19:14:45.793398,3625.8064516129034,0,3620.6451612903224,0,3647.4193548387098,0,3745.8064516129034,0,3871.6129032258063,0,3925.1612903225805,0,3620.967741935484,0,3623.225806451613,0,3631.2903225806454,0,3937.741935483871,0,4001.6129032258063,0,3684.8387096774195,0,4251.935483870968,0,3955.161290322581,0,0,0,?
2018-06-05 19:14:45.793398,3625.8064516129034,0,3620.6451612903224,0,3647.4193548387098,0,3745.8064516129034,0,3871.6129032258063,0,3925.1612903225805,0,3620.967741935484,0,3623.225806451613,0,3631.2903225806454,0,3937.741935483871,0,4001.6129032258063,0,3684.8387096774195,0,4251.935483870968,0,3955.161290322581,0,0,0,?
2018-06-05 19:14:45.793398,3625.8064516129034,0,3620.6451612903224,0,3647.4193548387098,0,3745.8064516129034,0,3871.6129032258063,0,3925.1612903225805,0,3620.967741935484,0,3623.225806451613,0,3631.2903225806454,0,3937.741935483871,0,4001.6129032258063,0,3684.8387096774195,0,4251.935483870968,0,3955.161290322581,0,0,0,?
2018-06-05 19:14:45.793398,3625.8064516129034,0,3620.6451612903224,0,3647.4193548387098,0,3745.8064516129034,0,3871.6129032258063,0,3925.1612903225805,0,3620.967741935484,0,3623.225806451613,0,3631.2903225806454,0,3937.741935483871,0,4001.6129032258063,0,3684.8387096774195,0,4251.935483870968,0,3955.161290322581,0,0,0,?
2018-06-05 19:14:45.793398,3625.8064516129034,0,3620.6451612903224,0,3647.4193548387098,0,3745.8064516129034,0,3871.6129032258063,0,3925.1612903225805,0,3620.967741935484,0,3623.225806451613,0,3631.2903225806454,0,3937.741935483871,0,4001.6129032258063,0,3684.8387096774195,0,4251.935483870968,0,3955.161290322581,0,0,0,?
2018-06-05 19:14:45.793398,3625.8064516129034,0,3620.6451612903224,0,3647.4193548387098,0,3745.8064516129034,0,3871.6129032258063,0,3925.1612903225805,0,3620.967741935484,0,3623.225806451613,0,3631.2903225806454,0,3937.741935483871,0,4001.6129032258063,0,3684.8387096774195,0,4251.935483870968,0,3955.161290322581,0,0,0,?
2018-06-05 19:14:45.793398,3625.8064516129034,0,3620.6451612903224,0,3647.4193548387098,0,3745.8064516129034,0,3871.6129032258063,0,3925.1612903225805,0,3620.967741935484,0,3623.225806451613,0,3631.2903225806454,0,3937.741935483871,0,4001.6129032258063,0,3684.8387096774195,0,4251.935483870968,0,3955.161290322581,0,0,0,?
2018-06-05 19:14:45.794398,3625.8064516129034,0,3620.6451612903224,0,3647.4193548387098,0,3745.8064516129034,0,3871.6129032258063,0,3925.1612903225805,0,3620.967741935484,0,3623.225806451613,0,3631.2903225806454,0,3937.741935483871,0,4001.6129032258063,0,3684.8387096774195,0,4251.935483870968,0,3955.161290322581,0,0,0,?
2018-06-05 19:14:45.794398,3625.8064516129034,0,3620.6451612903224,0,3647.4193548387098,0,3745.8064516129034,0,3871.6129032258063,0,3925.1612903225805,0,3620.967741935484,0,3623.225806451613,0,3631.2903225806454,0,3937.741935483871,0,4001.6129032258063,0,3684.8387096774195,0,4251.935483870968,0,3955.161290322581,0,0,0,?
2018-06-05 19:14:45.794398,3636.1290322580644,0,3634.193548387097,0,3641.290322580645,0,3712.5806451612902,0,3847.4193548387093,0,3952.2580645161293,0,3644.193548387097,0,3634.193548387097,0,3633.8709677419356,0,3913.8709677419356,0,4035.483870967742,0,3692.5806451612902,0,4276.451612903226,0,3911.2903225806454,0,0,0,?
2018-06-05 19:14:45.794398,3636.1290322580644,0,3634.193548387097,0,3641.290322580645,0,3712.5806451612902,0,3847.4193548387093,0,3952.2580645161293,0,3644.193548387097,0,3634.193548387097,0,3633.8709677419356,0,3913.8709677419356,0,4035.483870967742,0,3692.5806451612902,0,4276.451612903226,0,3911.2903225806454,0,0,0,?
2018-06-05 19:14:45.794398,3636.1290322580644,0,3634.193548387097,0,3641.290322580645,0,3712.5806451612902,0,3847.4193548387093,0,3952.2580645161293,0,3644.193548387097,0,3634.193548387097,0,3633.8709677419356,0,3913.8709677419356,0,4035.483870967742,0,3692.5806451612902,0,4276.451612903226,0,3911.2903225806454,0,0,0,?
2018-06-05 19:14:45.794398,3636.1290322580644,0,3634.193548387097,0,3641.290322580645,0,3712.5806451612902,0,3847.4193548387093,0,3952.2580645161293,0,3644.193548387097,0,3634.193548387097,0,3633.8709677419356,0,3913.8709677419356,0,4035.483870967742,0,3692.5806451612902,0,4276.451612903226,0,3911.2903225806454,0,0,0,?
2018-06-05 19:14:45.794398,3636.1290322580644,0,3634.193548387097,0,3641.290322580645,0,3712.5806451612902,0,3847.4193548387093,0,3952.2580645161293,0,3644.193548387097,0,3634.193548387097,0,3633.8709677419356,0,3913.8709677419356,0,4035.483870967742,0,3692.5806451612902,0,4276.451612903226,0,3911.2903225806454,0,0,0,?
2018-06-05 19:14:45.794398,3636.1290322580644,0,3634.193548387097,0,3641.290322580645,0,3712.5806451612902,0,3847.4193548387093,0,3952.2580645161293,0,3644.193548387097,0,3634.193548387097,0,3633.8709677419356,0,3913.8709677419356,0,4035.483870967742,0,3692.5806451612902,0,4276.451612903226,0,3911.2903225806454,0,0,0,?
2018-06-05 19:14:45.794398,3636.1290322580644,0,3634.193548387097,0,3641.290322580645,0,3712.5806451612902,0,3847.4193548387093,0,3952.2580645161293,0,3644.193548387097,0,3634.193548387097,0,3633.8709677419356,0,3913.8709677419356,0,4035.483870967742,0,3692.5806451612902,0,4276.451612903226,0,3911.2903225806454,0,0,0,?
2018-06-05 19:14:45.795399,3636.1290322580644,0,3634.193548387097,0,3641.290322580645,0,3712.5806451612902,0,3847.4193548387093,0,3952.2580645161293,0,3644.193548387097,0,3634.193548387097,0,3633.8709677419356,0,3913.8709677419356,0,4035.483870967742,0,3692.5806451612902,0,4276.451612903226,0,3911.2903225806454,0,0,0,?
2018-06-05 19:14:45.801399,3636.1290322580644,0,3634.193548387097,0,3641.290322580645,0,3712.5806451612902,0,3847.4193548387093,0,3952.2580645161293,0,3644.193548387097,0,3634.193548387097,0,3633.8709677419356,0,3913.8709677419356,0,4035.483870967742,0,3692.5806451612902,0,4276.451612903226,0,3911.2903225806454,0,0,0,?
2018-06-05 19:14:45.818401,3644.8387096774195,0,3644.8387096774195,0,3660.967741935484,0,3720.967741935484,0,3858.7096774193546,0,3932.5806451612907,0,3647.0967741935483,0,3639.677419354839,0,3641.935483870968,0,3927.4193548387098,0,4010.3225806451615,0,3693.225806451613,0,4252.258064516129,0,3932.9032258064517,0,0,0,?
2018-06-05 19:14:45.818401,3644.8387096774195,0,3644.8387096774195,0,3660.967741935484,0,3720.967741935484,0,3858.7096774193546,0,3932.5806451612907,0,3647.0967741935483,0,3639.677419354839,0,3641.935483870968,0,3927.4193548387098,0,4010.3225806451615,0,3693.225806451613,0,4252.258064516129,0,3932.9032258064517,0,0,0,?
2018-06-05 19:14:45.834402,3644.8387096774195,0,3644.8387096774195,0,3660.967741935484,0,3720.967741935484,0,3858.7096774193546,0,3932.5806451612907,0,3647.0967741935483,0,3639.677419354839,0,3641.935483870968,0,3927.4193548387098,0,4010.3225806451615,0,3693.225806451613,0,4252.258064516129,0,3932.9032258064517,0,0,0,?
2018-06-05 19:14:45.844403,3644.8387096774195,0,3644.8387096774195,0,3660.967741935484,0,3720.967741935484,0,3858.7096774193546,0,3932.5806451612907,0,3647.0967741935483,0,3639.677419354839,0,3641.935483870968,0,3927.4193548387098,0,4010.3225806451615,0,3693.225806451613,0,4252.258064516129,0,3932.9032258064517,0,0,0,?
2018-06-05 19:14:45.855405,3644.516129032258,0,3645.8064516129034,0,3653.870967741935,0,3737.7419354838707,0,3851.9354838709673,0,3936.7741935483873,0,3655.483870967742,0,3637.0967741935483,0,3633.8709677419356,0,3917.741935483871,0,4011.935483870968,0,3698.709677419355,0,4250.645161290323,0,3952.2580645161293,0,0,0,?
2018-06-05 19:14:45.855405,3644.516129032258,0,3645.8064516129034,0,3653.870967741935,0,3737.7419354838707,0,3851.9354838709673,0,3936.7741935483873,0,3655.483870967742,0,3637.0967741935483,0,3633.8709677419356,0,3917.741935483871,0,4011.935483870968,0,3698.709677419355,0,4250.645161290323,0,3952.2580645161293,0,0,0,?
2018-06-05 19:14:45.876407,3653.548387096774,0,3647.0967741935483,0,3660.967741935484,0,3739.6774193548385,0,3886.1290322580644,0,3951.2903225806454,0,3636.1290322580644,0,3630.6451612903224,0,3639.3548387096776,0,3925.8064516129034,0,4008.7096774193546,0,3688.709677419355,0,4262.903225806452,0,3906.7741935483873,0,0,0,?
2018-06-05 19:14:45.876407,3648.3870967741937,0,3651.2903225806454,0,3617.741935483871,0,3726.774193548387,0,3849.032258064516,0,3906.7741935483873,0,3646.1290322580644,0,3633.8709677419356,0,3643.8709677419356,0,3911.935483870968,0,4020.3225806451615,0,3712.2580645161293,0,4284.193548387097,0,3933.5483870967746,0,0,0,?
2018-06-05 19:14:45.876407,3648.3870967741937,0,3651.2903225806454,0,3617.741935483871,0,3726.774193548387,0,3849.032258064516,0,3906.7741935483873,0,3646.1290322580644,0,3633.8709677419356,0,3643.8709677419356,0,3911.935483870968,0,4020.3225806451615,0,3712.2580645161293,0,4284.193548387097,0,3933.5483870967746,0,0,0,?
2018-06-05 19:14:45.886408,3648.3870967741937,0,3651.2903225806454,0,3617.741935483871,0,3726.774193548387,0,3849.032258064516,0,3906.7741935483873,0,3646.1290322580644,0,3633.8709677419356,0,3643.8709677419356,0,3911.935483870968,0,4020.3225806451615,0,3712.2580645161293,0,4284.193548387097,0,3933.5483870967746,0,0,0,?
2018-06-05 19:14:45.896409,3648.3870967741937,0,3651.2903225806454,0,3617.741935483871,0,3726.774193548387,0,3849.032258064516,0,3906.7741935483873,0,3646.1290322580644,0,3633.8709677419356,0,3643.8709677419356,0,3911.935483870968,0,4020.3225806451615,0,3712.2580645161293,0,4284.193548387097,0,3933.5483870967746,0,0,0,?
2018-06-05 19:14:45.896409,3648.3870967741937,0,3651.2903225806454,0,3617.741935483871,0,3726.774193548387,0,3849.032258064516,0,3906.7741935483873,0,3646.1290322580644,0,3633.8709677419356,0,3643.8709677419356,0,3911.935483870968,0,4020.3225806451615,0,3712.2580645161293,0,4284.193548387097,0,3933.5483870967746,0,0,0,?
2018-06-05 19:14:45.907410,3646.1290322580644,0,3639.677419354839,0,3660.6451612903224,0,3754.516129032258,0,3875.1612903225805,0,3932.5806451612902,0,3645.483870967742,0,3639.032258064516,0,3653.225806451613,0,3930.967741935484,0,4006.1290322580644,0,3705.483870967742,0,4260.645161290323,0,3926.7741935483873,0,0,0,?
2018-06-05 19:14:45.949414,3648.709677419355,0,3654.516129032258,0,3661.935483870968,0,3721.290322580645,0,3840.967741935484,0,3943.2258064516127,0,3646.7741935483873,0,3642.5806451612902,0,3638.3870967741937,0,3945.8064516129034,0,4017.4193548387098,0,3706.451612903226,0,4250.967741935484,0,3919.0322580645166,0,0,0,?
2018-06-05 19:14:45.949414,3648.709677419355,0,3654.516129032258,0,3661.935483870968,0,3721.290322580645,0,3840.967741935484,0,3943.2258064516127,0,3646.7741935483873,0,3642.5806451612902,0,3638.3870967741937,0,3945.8064516129034,0,4017.4193548387098,0,3706.451612903226,0,4250.967741935484,0,3919.0322580645166,0,0,0,?
2018-06-05 19:14:45.949414,3640.0,0,3650.3225806451615,0,3656.774193548387,0,3757.4193548387098,0,3879.3548387096776,0,3936.7741935483873,0,3637.4193548387098,0,3644.193548387097,0,3643.225806451613,0,3950.967741935484,0,4008.709677419355,0,3716.451612903226,0,4229.354838709678,0,3910.3225806451615,0,0,0,?
2018-06-05 19:14:46.005420,3658.3870967741937,0,3658.3870967741937,0,3616.451612903226,0,3722.258064516129,0,3849.6774193548385,0,3906.129032258065,0,3654.8387096774195,0,3642.5806451612902,0,3650.0,0,3931.935483870968,0,4006.451612903226,0,3707.741935483871,0,4245.483870967742,0,3936.7741935483873,0,0,0,?
2018-06-05 19:14:46.005420,3644.193548387097,0,3647.4193548387098,0,3613.225806451613,0,3757.741935483871,0,3884.516129032258,0,3945.483870967742,0,3635.483870967742,0,3633.8709677419356,0,3646.1290322580644,0,3952.9032258064517,0,3995.483870967742,0,3700.967741935484,0,4268.387096774194,0,3931.935483870968,0,0,0,?
2018-06-05 19:14:46.005420,3640.967741935484,0,3647.741935483871,0,3613.225806451613,0,3757.4193548387098,0,3858.3870967741937,0,3949.3548387096776,0,3630.6451612903224,0,3641.2903225806454,0,3652.2580645161293,0,3928.709677419355,0,3992.9032258064517,0,3705.1612903225805,0,4232.580645161291,0,3983.5483870967746,0,0,0,?
2018-06-05 19:14:46.005420,3640.967741935484,0,3647.741935483871,0,3613.225806451613,0,3757.4193548387098,0,3858.3870967741937,0,3949.3548387096776,0,3630.6451612903224,0,3641.2903225806454,0,3652.2580645161293,0,3928.709677419355,0,3992.9032258064517,0,3705.1612903225805,0,4232.580645161291,0,3983.5483870967746,0,0,0,?
2018-06-05 19:14:46.026422,3640.967741935484,0,3647.741935483871,0,3613.225806451613,0,3757.4193548387098,0,3858.3870967741937,0,3949.3548387096776,0,3630.6451612903224,0,3641.2903225806454,0,3652.2580645161293,0,3928.709677419355,0,3992.9032258064517,0,3705.1612903225805,0,4232.580645161291,0,3983.5483870967746,0,0,0,?
2018-06-05 19:14:46.026422,3640.967741935484,0,3647.741935483871,0,3613.225806451613,0,3757.4193548387098,0,3858.3870967741937,0,3949.3548387096776,0,3630.6451612903224,0,3641.2903225806454,0,3652.2580645161293,0,3928.709677419355,0,3992.9032258064517,0,3705.1612903225805,0,4232.580645161291,0,3983.5483870967746,0,0,0,?
2018-06-05 19:14:46.051424,3665.161290322581,0,3662.5806451612902,0,3630.3225806451615,0,3739.032258064516,0,3868.064516129032,0,3923.225806451613,0,3669.3548387096776,0,3653.548387096774,0,3665.161290322581,0,3911.612903225807,0,4011.2903225806454,0,3716.7741935483873,0,4308.064516129032,0,3929.0322580645166,0,0,0,?
2018-06-05 19:14:46.051424,3657.0967741935483,0,3668.709677419355,0,3631.6129032258063,0,3714.516129032258,0,3882.9032258064517,0,3942.5806451612902,0,3654.8387096774195,0,3653.548387096774,0,3669.677419354839,0,3959.677419354839,0,4044.8387096774195,0,3729.3548387096776,0,4254.5161290322585,0,3975.161290322581,0,0,0,?
2018-06-05 19:14:46.056425,3657.0967741935483,0,3668.709677419355,0,3631.6129032258063,0,3714.516129032258,0,3882.9032258064517,0,3942.5806451612902,0,3654.8387096774195,0,3653.548387096774,0,3669.677419354839,0,3959.677419354839,0,4044.8387096774195,0,3729.3548387096776,0,4254.5161290322585,0,3975.161290322581,0,0,0,?
2018-06-05 19:14:46.061425,3657.0967741935483,0,3668.709677419355,0,3631.6129032258063,0,3714.516129032258,0,3882.9032258064517,0,3942.5806451612902,0,3654.8387096774195,0,3653.548387096774,0,3669.677419354839,0,3959.677419354839,0,4044.8387096774195,0,3729.3548387096776,0,4254.5161290322585,0,3975.161290322581,0,0,0,?
2018-06-05 19:14:46.067426,3657.0967741935483,0,3668.709677419355,0,3631.6129032258063,0,3714.516129032258,0,3882.9032258064517,0,3942.5806451612902,0,3654.8387096774195,0,3653.548387096774,0,3669.677419354839,0,3959.677419354839,0,4044.8387096774195,0,3729.3548387096776,0,4254.5161290322585,0,3975.161290322581,0,0,0,?
2018-06-05 19:14:46.067426,3657.0967741935483,0,3668.709677419355,0,3631.6129032258063,0,3714.516129032258,0,3882.9032258064517,0,3942.5806451612902,0,3654.8387096774195,0,3653.548387096774,0,3669.677419354839,0,3959.677419354839,0,4044.8387096774195,0,3729.3548387096776,0,4254.5161290322585,0,3975.161290322581,0,0,0,?
2018-06-05 19:14:46.067426,3657.0967741935483,0,3668.709677419355,0,3631.6129032258063,0,3714.516129032258,0,3882.9032258064517,0,3942.5806451612902,0,3654.8387096774195,0,3653.548387096774,0,3669.677419354839,0,3959.677419354839,0,4044.8387096774195,0,3729.3548387096776,0,4254.5161290322585,0,3975.161290322581,0,0,0,?
2018-06-05 19:14:46.067426,3657.0967741935483,0,3668.709677419355,0,3631.6129032258063,0,3714.516129032258,0,3882.9032258064517,0,3942.5806451612902,0,3654.8387096774195,0,3653.548387096774,0,3669.677419354839,0,3959.677419354839,0,4044.8387096774195,0,3729.3548387096776,0,4254.5161290322585,0,3975.161290322581,0,0,0,?
2018-06-05 19:14:46.067426,3657.0967741935483,0,3668.709677419355,0,3631.6129032258063,0,3714.516129032258,0,3882.9032258064517,0,3942.5806451612902,0,3654.8387096774195,0,3653.548387096774,0,3669.677419354839,0,3959.677419354839,0,4044.8387096774195,0,3729.3548387096776,0,4254.5161290322585,0,3975.161290322581,0,0,0,?
2018-06-05 19:14:46.067426,3657.0967741935483,0,3668.709677419355,0,3631.6129032258063,0,3714.516129032258,0,3882.9032258064517,0,3942.5806451612902,0,3654.8387096774195,0,3653.548387096774,0,3669.677419354839,0,3959.677419354839,0,4044.8387096774195,0,3729.3548387096776,0,4254.5161290322585,0,3975.161290322581,0,0,0,?
2018-06-05 19:14:46.072426,3683.8709677419356,0,3676.451612903226,0,3640.0,0,3748.387096774193,0,3871.290322580645,0,3919.677419354839,0,3680.3225806451615,0,3666.451612903226,0,3674.193548387097,0,3951.6129032258063,0,4012.2580645161293,0,3728.064516129032,0,4291.612903225807,0,3922.5806451612907,0,0,0,?
2018-06-05 19:14:46.109430,3683.8709677419356,0,3676.451612903226,0,3640.0,0,3748.387096774193,0,3871.290322580645,0,3919.677419354839,0,3680.3225806451615,0,3666.451612903226,0,3674.193548387097,0,3951.6129032258063,0,4012.2580645161293,0,3728.064516129032,0,4291.612903225807,0,3922.5806451612907,0,0,0,?
2018-06-05 19:14:46.109430,3683.8709677419356,0,3676.451612903226,0,3640.0,0,3748.387096774193,0,3871.290322580645,0,3919.677419354839,0,3680.3225806451615,0,3666.451612903226,0,3674.193548387097,0,3951.6129032258063,0,4012.2580645161293,0,3728.064516129032,0,4291.612903225807,0,3922.5806451612907,0,0,0,?
2018-06-05 19:14:46.109430,3683.8709677419356,0,3676.451612903226,0,3640.0,0,3748.387096774193,0,3871.290322580645,0,3919.677419354839,0,3680.3225806451615,0,3666.451612903226,0,3674.193548387097,0,3951.6129032258063,0,4012.2580645161293,0,3728.064516129032,0,4291.612903225807,0,3922.5806451612907,0,0,0,?
2018-06-05 19:14:46.109430,3683.8709677419356,0,3676.451612903226,0,3640.0,0,3748.387096774193,0,3871.290322580645,0,3919.677419354839,0,3680.3225806451615,0,3666.451612903226,0,3674.193548387097,0,3951.6129032258063,0,4012.2580645161293,0,3728.064516129032,0,4291.612903225807,0,3922.5806451612907,0,0,0,?
2018-06-05 19:14:46.110430,3683.8709677419356,0,3676.451612903226,0,3640.0,0,3748.387096774193,0,3871.290322580645,0,3919.677419354839,0,3680.3225806451615,0,3666.451612903226,0,3674.193548387097,0,3951.6129032258063,0,4012.2580645161293,0,3728.064516129032,0,4291.612903225807,0,3922.5806451612907,0,0,0,?
2018-06-05 19:14:46.110430,3683.8709677419356,0,3676.451612903226,0,3640.0,0,3748.387096774193,0,3871.290322580645,0,3919.677419354839,0,3680.3225806451615,0,3666.451612903226,0,3674.193548387097,0,3951.6129032258063,0,4012.2580645161293,0,3728.064516129032,0,4291.612903225807,0,3922.5806451612907,0,0,0,?
2018-06-05 19:14:46.143433,3683.8709677419356,0,3676.451612903226,0,3640.0,0,3748.387096774193,0,3871.290322580645,0,3919.677419354839,0,3680.3225806451615,0,3666.451612903226,0,3674.193548387097,0,3951.6129032258063,0,4012.2580645161293,0,3728.064516129032,0,4291.612903225807,0,3922.5806451612907,0,0,0,?
2018-06-05 19:14:46.169436,3683.225806451613,0,3679.3548387096776,0,3647.0967741935483,0,3767.7419354838707,0,3881.6129032258063,0,3939.3548387096776,0,3681.6129032258063,0,3676.451612903226,0,3684.8387096774195,0,3940.6451612903224,0,4007.4193548387098,0,3729.3548387096776,0,4272.903225806452,0,3939.3548387096776,0,0,0,?
2018-06-05 19:14:46.169436,3683.225806451613,0,3679.3548387096776,0,3647.0967741935483,0,3767.7419354838707,0,3881.6129032258063,0,3939.3548387096776,0,3681.6129032258063,0,3676.451612903226,0,3684.8387096774195,0,3940.6451612903224,0,4007.4193548387098,0,3729.3548387096776,0,4272.903225806452,0,3939.3548387096776,0,0,0,?
2018-06-05 19:14:46.184437,3660.967741935484,0,3661.6129032258063,0,3628.064516129032,0,3722.258064516129,0,3843.870967741935,0,3950.967741935484,0,3653.548387096774,0,3663.548387096774,0,3675.8064516129034,0,3910.3225806451615,0,4002.5806451612907,0,3729.3548387096776,0,4274.8387096774195,0,3935.8064516129034,0,0,0,?
2018-06-05 19:14:46.219441,3683.8709677419356,0,3679.3548387096776,0,3637.4193548387098,0,3766.774193548387,0,3861.6129032258063,0,3965.161290322581,0,3685.1612903225805,0,3670.0,0,3681.935483870968,0,3941.935483870968,0,3997.0967741935483,0,3733.8709677419356,0,4264.8387096774195,0,3945.4838709677424,0,0,0,?
2018-06-05 19:14:46.219441,3683.8709677419356,0,3679.3548387096776,0,3637.4193548387098,0,3766.774193548387,0,3861.6129032258063,0,3965.161290322581,0,3685.1612903225805,0,3670.0,0,3681.935483870968,0,3941.935483870968,0,3997.0967741935483,0,3733.8709677419356,0,4264.8387096774195,0,3945.4838709677424,0,0,0,?
2018-06-05 19:14:46.219441,3683.8709677419356,0,3679.3548387096776,0,3637.4193548387098,0,3766.774193548387,0,3861.6129032258063,0,3965.161290322581,0,3685.1612903225805,0,3670.0,0,3681.935483870968,0,3941.935483870968,0,3997.0967741935483,0,3733.8709677419356,0,4264.8387096774195,0,3945.4838709677424,0,0,0,?
2018-06-05 19:14:46.251444,3663.8709677419356,0,3673.548387096774,0,3643.548387096774,0,3728.7096774193546,0,3879.6774193548385,0,3919.677419354839,0,3678.709677419355,0,3672.5806451612902,0,3677.741935483871,0,3941.935483870968,0,4040.967741935484,0,3738.709677419355,0,4265.1612903225805,0,3982.2580645161293,0,0,0,?
2018-06-05 19:14:46.251444,3679.677419354839,0,3684.8387096774195,0,3650.3225806451615,0,3737.0967741935483,0,3851.290322580645,0,3910.967741935484,0,3671.935483870968,0,3668.064516129032,0,3686.7741935483873,0,3954.193548387097,0,4036.129032258065,0,3739.677419354839,0,4285.806451612903,0,3967.0967741935488,0,0,0,?
2018-06-05 19:14:46.251444,3682.2580645161293,0,3690.0,0,3650.3225806451615,0,3742.9032258064512,0,3868.064516129032,0,3946.451612903226,0,3684.516129032258,0,3681.935483870968,0,3682.5806451612902,0,3921.935483870968,0,4025.1612903225805,0,3743.548387096774,0,4277.741935483871,0,3936.7741935483873,0,0,0,?
2018-06-05 19:14:46.251444,3681.6129032258063,0,3677.4193548387098,0,3641.6129032258063,0,3727.7419354838707,0,3847.0967741935483,0,3903.225806451613,0,3670.0,0,3676.451612903226,0,3688.3870967741937,0,3917.0967741935488,0,4029.032258064516,0,3734.516129032258,0,4227.096774193548,0,3933.225806451613,0,0,0,?
2018-06-05 19:14:46.257445,3681.6129032258063,0,3677.4193548387098,0,3641.6129032258063,0,3727.7419354838707,0,3847.0967741935483,0,3903.225806451613,0,3670.0,0,3676.451612903226,0,3688.3870967741937,0,3917.0967741935488,0,4029.032258064516,0,3734.516129032258,0,4227.096774193548,0,3933.225806451613,0,0,0,?
2018-06-05 19:14:46.257445,3681.6129032258063,0,3677.4193548387098,0,3641.6129032258063,0,3727.7419354838707,0,3847.0967741935483,0,3903.225806451613,0,3670.0,0,3676.451612903226,0,3688.3870967741937,0,3917.0967741935488,0,4029.032258064516,0,3734.516129032258,0,4227.096774193548,0,3933.225806451613,0,0,0,?
2018-06-05 19:14:46.258445,3681.6129032258063,0,3677.4193548387098,0,3641.6129032258063,0,3727.7419354838707,0,3847.0967741935483,0,3903.225806451613,0,3670.0,0,3676.451612903226,0,3688.3870967741937,0,3917.0967741935488,0,4029.032258064516,0,3734.516129032258,0,4227.096774193548,0,3933.225806451613,0,0,0,?
2018-06-05 19:14:46.258445,3681.6129032258063,0,3677.4193548387098,0,3641.6129032258063,0,3727.7419354838707,0,3847.0967741935483,0,3903.225806451613,0,3670.0,0,3676.451612903226,0,3688.3870967741937,0,3917.0967741935488,0,4029.032258064516,0,3734.516129032258,0,4227.096774193548,0,3933.225806451613,0,0,0,?
2018-06-05 19:14:46.264445,3681.6129032258063,0,3677.4193548387098,0,3641.6129032258063,0,3727.7419354838707,0,3847.0967741935483,0,3903.225806451613,0,3670.0,0,3676.451612903226,0,3688.3870967741937,0,3917.0967741935488,0,4029.032258064516,0,3734.516129032258,0,4227.096774193548,0,3933.225806451613,0,0,0,?
2018-06-05 19:14:46.264445,3681.6129032258063,0,3677.4193548387098,0,3641.6129032258063,0,3727.7419354838707,0,3847.0967741935483,0,3903.225806451613,0,3670.0,0,3676.451612903226,0,3688.3870967741937,0,3917.0967741935488,0,4029.032258064516,0,3734.516129032258,0,4227.096774193548,0,3933.225806451613,0,0,0,?
2018-06-05 19:14:46.276447,3659.677419354839,0,3682.5806451612902,0,3653.225806451613,0,3737.7419354838707,0,3886.7741935483873,0,3930.645161290323,0,3672.9032258064517,0,3668.064516129032,0,3690.0,0,3929.0322580645166,0,4007.741935483871,0,3746.7741935483873,0,4234.5161290322585,0,3977.0967741935488,0,0,0,?
2018-06-05 19:14:46.276447,3648.064516129032,0,3690.0,0,3660.0,0,3769.6774193548385,0,3877.0967741935483,0,3971.612903225807,0,3648.387096774193,0,3688.064516129032,0,3649.032258064516,0,3932.9032258064517,0,4008.3870967741937,0,3743.8709677419356,0,4272.580645161291,0,3931.2903225806454,0,0,0,?
2018-06-05 19:14:46.294448,3648.064516129032,0,3690.0,0,3660.0,0,3769.6774193548385,0,3877.0967741935483,0,3971.612903225807,0,3648.387096774193,0,3688.064516129032,0,3649.032258064516,0,3932.9032258064517,0,4008.3870967741937,0,3743.8709677419356,0,4272.580645161291,0,3931.2903225806454,0,0,0,?
2018-06-05 19:14:46.318451,3677.0967741935483,0,3682.2580645161293,0,3649.3548387096776,0,3727.7419354838707,0,3839.032258064516,0,3915.4838709677424,0,3673.548387096774,0,3672.9032258064517,0,3645.1612903225805,0,3953.225806451613,0,4025.483870967742,0,3757.741935483871,0,4266.451612903226,0,3951.2903225806454,0,0,0,?
2018-06-05 19:14:46.318451,3683.8709677419356,0,3694.8387096774195,0,3653.225806451613,0,3723.2258064516127,0,3860.6451612903224,0,3946.451612903226,0,3678.064516129032,0,3686.7741935483873,0,3694.8387096774195,0,3939.677419354839,0,4023.548387096774,0,3750.0,0,4259.677419354839,0,3959.0322580645166,0,0,0,?
2018-06-05 19:14:46.318451,3683.8709677419356,0,3694.8387096774195,0,3653.225806451613,0,3723.2258064516127,0,3860.6451612903224,0,3946.451612903226,0,3678.064516129032,0,3686.7741935483873,0,3694.8387096774195,0,3939.677419354839,0,4023.548387096774,0,3750.0,0,4259.677419354839,0,3959.0322580645166,0,0,0,?
2018-06-05 19:14:46.371456,3683.8709677419356,0,3694.8387096774195,0,3653.225806451613,0,3723.2258064516127,0,3860.6451612903224,0,3946.451612903226,0,3678.064516129032,0,3686.7741935483873,0,3694.8387096774195,0,3939.677419354839,0,4023.548387096774,0,3750.0,0,4259.677419354839,0,3959.0322580645166,0,0,0,?
2018-06-05 19:14:46.371456,3683.8709677419356,0,3694.8387096774195,0,3653.225806451613,0,3723.2258064516127,0,3860.6451612903224,0,3946.451612903226,0,3678.064516129032,0,3686.7741935483873,0,3694.8387096774195,0,3939.677419354839,0,4023.548387096774,0,3750.0,0,4259.677419354839,0,3959.0322580645166,0,0,0,?
2018-06-05 19:14:46.372456,3683.8709677419356,0,3694.8387096774195,0,3653.225806451613,0,3723.2258064516127,0,3860.6451612903224,0,3946.451612903226,0,3678.064516129032,0,3686.7741935483873,0,3694.8387096774195,0,3939.677419354839,0,4023.548387096774,0,3750.0,0,4259.677419354839,0,3959.0322580645166,0,0,0,?
2018-06-05 19:14:46.372456,3683.8709677419356,0,3694.8387096774195,0,3653.225806451613,0,3723.2258064516127,0,3860.6451612903224,0,3946.451612903226,0,3678.064516129032,0,3686.7741935483873,0,3694.8387096774195,0,3939.677419354839,0,4023.548387096774,0,3750.0,0,4259.677419354839,0,3959.0322580645166,0,0,0,?
2018-06-05 19:14:46.398459,3691.935483870968,0,3693.225806451613,0,3657.4193548387098,0,3749.6774193548385,0,3858.7096774193546,0,3952.9032258064517,0,3682.9032258064517,0,3687.741935483871,0,3650.6451612903224,0,3930.967741935484,0,4005.161290322581,0,3754.516129032258,0,4247.741935483871,0,3932.2580645161293,0,0,0,?
2018-06-05 19:14:46.408460,3691.935483870968,0,3693.225806451613,0,3657.4193548387098,0,3749.6774193548385,0,3858.7096774193546,0,3952.9032258064517,0,3682.9032258064517,0,3687.741935483871,0,3650.6451612903224,0,3930.967741935484,0,4005.161290322581,0,3754.516129032258,0,4247.741935483871,0,3932.2580645161293,0,0,0,?
2018-06-05 19:14:46.419461,3694.8387096774195,0,3649.032258064516,0,3660.6451612903224,0,3750.6451612903224,0,3873.548387096774,0,3916.451612903226,0,3690.3225806451615,0,3693.548387096774,0,3652.9032258064512,0,3912.2580645161293,0,4014.5161290322585,0,3713.2258064516127,0,4247.096774193548,0,3919.3548387096776,0,0,0,?
2018-06-05 19:14:46.431462,3649.6774193548385,0,3661.290322580645,0,3668.709677419355,0,3785.806451612903,0,3869.6774193548385,0,3956.129032258065,0,3651.290322580645,0,3646.1290322580644,0,3657.7419354838707,0,3948.7096774193546,0,4009.677419354839,0,3714.1935483870966,0,4267.096774193548,0,3943.5483870967746,0,0,0,?
2018-06-05 19:14:46.431462,3694.193548387097,0,3646.451612903226,0,3669.032258064516,0,3760.967741935484,0,3847.0967741935483,0,3944.8387096774195,0,3684.193548387097,0,3687.4193548387098,0,3661.290322580645,0,3939.3548387096776,0,4025.161290322581,0,3710.6451612903224,0,4255.483870967742,0,3981.612903225807,0,0,0,?
2018-06-05 19:14:46.431462,3686.451612903226,0,3650.322580645161,0,3657.0967741935483,0,3745.806451612903,0,3840.6451612903224,0,3931.2903225806454,0,3687.4193548387098,0,3692.2580645161293,0,3661.935483870968,0,3957.4193548387098,0,4038.709677419355,0,3755.8064516129034,0,4264.193548387097,0,3952.9032258064517,0,0,0,?
2018-06-05 19:14:46.431462,3692.5806451612902,0,3692.9032258064517,0,3667.741935483871,0,3740.0,0,3845.1612903225805,0,3950.6451612903224,0,3684.516129032258,0,3694.193548387097,0,3654.1935483870966,0,3985.4838709677424,0,4030.967741935484,0,3759.677419354839,0,4272.258064516129,0,3943.8709677419356,0,0,0,?
2018-06-05 19:14:46.431462,3693.225806451613,0,3648.7096774193546,0,3664.8387096774195,0,3746.1290322580644,0,3865.1612903225805,0,3939.032258064516,0,3684.8387096774195,0,3645.1612903225805,0,3661.935483870968,0,3928.0645161290327,0,4005.1612903225805,0,3717.4193548387093,0,4231.935483870968,0,3961.612903225807,0,0,0,?
2018-06-05 19:14:46.431462,3693.225806451613,0,3648.7096774193546,0,3664.8387096774195,0,3746.1290322580644,0,3865.1612903225805,0,3939.032258064516,0,3684.8387096774195,0,3645.1612903225805,0,3661.935483870968,0,3928.0645161290327,0,4005.1612903225805,0,3717.4193548387093,0,4231.935483870968,0,3961.612903225807,0,0,0,?
2018-06-05 19:14:46.432462,3693.225806451613,0,3648.7096774193546,0,3664.8387096774195,0,3746.1290322580644,0,3865.1612903225805,0,3939.032258064516,0,3684.8387096774195,0,3645.1612903225805,0,3661.935483870968,0,3928.0645161290327,0,4005.1612903225805,0,3717.4193548387093,0,4231.935483870968,0,3961.612903225807,0,0,0,?
2018-06-05 19:14:46.468466,3693.225806451613,0,3648.7096774193546,0,3664.8387096774195,0,3746.1290322580644,0,3865.1612903225805,0,3939.032258064516,0,3684.8387096774195,0,3645.1612903225805,0,3661.935483870968,0,3928.0645161290327,0,4005.1612903225805,0,3717.4193548387093,0,4231.935483870968,0,3961.612903225807,0,0,0,?
2018-06-05 19:14:46.468466,3693.225806451613,0,3648.7096774193546,0,3664.8387096774195,0,3746.1290322580644,0,3865.1612903225805,0,3939.032258064516,0,3684.8387096774195,0,3645.1612903225805,0,3661.935483870968,0,3928.0645161290327,0,4005.1612903225805,0,3717.4193548387093,0,4231.935483870968,0,3961.612903225807,0,0,0,?
2018-06-05 19:14:46.468466,3693.225806451613,0,3648.7096774193546,0,3664.8387096774195,0,3746.1290322580644,0,3865.1612903225805,0,3939.032258064516,0,3684.8387096774195,0,3645.1612903225805,0,3661.935483870968,0,3928.0645161290327,0,4005.1612903225805,0,3717.4193548387093,0,4231.935483870968,0,3961.612903225807,0,0,0,?
2018-06-05 19:14:46.468466,3693.225806451613,0,3648.7096774193546,0,3664.8387096774195,0,3746.1290322580644,0,3865.1612903225805,0,3939.032258064516,0,3684.8387096774195,0,3645.1612903225805,0,3661.935483870968,0,3928.0645161290327,0,4005.1612903225805,0,3717.4193548387093,0,4231.935483870968,0,3961.612903225807,0,0,0,?
2018-06-05 19:14:46.478467,3693.225806451613,0,3648.7096774193546,0,3664.8387096774195,0,3746.1290322580644,0,3865.1612903225805,0,3939.032258064516,0,3684.8387096774195,0,3645.1612903225805,0,3661.935483870968,0,3928.0645161290327,0,4005.1612903225805,0,3717.4193548387093,0,4231.935483870968,0,3961.612903225807,0,0,0,?
2018-06-05 19:14:46.478467,3660.6451612903224,0,3662.258064516129,0,3680.967741935484,0,3784.838709677419,0,3900.0,0,3949.3548387096776,0,3663.2258064516127,0,3653.2258064516127,0,3661.6129032258063,0,3945.8064516129034,0,4004.193548387097,0,3723.548387096774,0,4259.354838709678,0,3911.2903225806454,0,0,0,?
2018-06-05 19:14:46.478467,3650.0,0,3652.258064516129,0,3663.548387096774,0,3756.774193548387,0,3853.2258064516127,0,3931.612903225807,0,3645.806451612903,0,3649.6774193548385,0,3659.6774193548385,0,3933.225806451613,0,4042.5806451612907,0,3714.1935483870966,0,4233.225806451613,0,3954.193548387097,0,0,0,?
2018-06-05 19:14:46.478467,3656.451612903226,0,3662.258064516129,0,3680.3225806451615,0,3766.451612903226,0,3878.7096774193546,0,3927.741935483871,0,3650.0,0,3658.064516129032,0,3671.290322580645,0,3958.709677419355,0,4032.5806451612902,0,3716.451612903226,0,4291.612903225807,0,3975.8064516129034,0,0,0,?
2018-06-05 19:14:46.479467,3656.451612903226,0,3662.258064516129,0,3680.3225806451615,0,3766.451612903226,0,3878.7096774193546,0,3927.741935483871,0,3650.0,0,3658.064516129032,0,3671.290322580645,0,3958.709677419355,0,4032.5806451612902,0,3716.451612903226,0,4291.612903225807,0,3975.8064516129034,0,0,0,?
2018-06-05 19:14:46.511470,3656.451612903226,0,3662.258064516129,0,3680.3225806451615,0,3766.451612903226,0,3878.7096774193546,0,3927.741935483871,0,3650.0,0,3658.064516129032,0,3671.290322580645,0,3958.709677419355,0,4032.5806451612902,0,3716.451612903226,0,4291.612903225807,0,3975.8064516129034,0,0,0,?
2018-06-05 19:14:46.511470,3656.451612903226,0,3662.258064516129,0,3680.3225806451615,0,3766.451612903226,0,3878.7096774193546,0,3927.741935483871,0,3650.0,0,3658.064516129032,0,3671.290322580645,0,3958.709677419355,0,4032.5806451612902,0,3716.451612903226,0,4291.612903225807,0,3975.8064516129034,0,0,0,?
2018-06-05 19:14:46.511470,3656.451612903226,0,3662.258064516129,0,3680.3225806451615,0,3766.451612903226,0,3878.7096774193546,0,3927.741935483871,0,3650.0,0,3658.064516129032,0,3671.290322580645,0,3958.709677419355,0,4032.5806451612902,0,3716.451612903226,0,4291.612903225807,0,3975.8064516129034,0,0,0,?
2018-06-05 19:14:46.541473,3656.451612903226,0,3662.258064516129,0,3680.3225806451615,0,3766.451612903226,0,3878.7096774193546,0,3927.741935483871,0,3650.0,0,3658.064516129032,0,3671.290322580645,0,3958.709677419355,0,4032.5806451612902,0,3716.451612903226,0,4291.612903225807,0,3975.8064516129034,0,0,0,?
2018-06-05 19:14:46.546474,3656.451612903226,0,3662.258064516129,0,3680.3225806451615,0,3766.451612903226,0,3878.7096774193546,0,3927.741935483871,0,3650.0,0,3658.064516129032,0,3671.290322580645,0,3958.709677419355,0,4032.5806451612902,0,3716.451612903226,0,4291.612903225807,0,3975.8064516129034,0,0,0,?
2018-06-05 19:14:46.546474,3661.6129032258063,0,3662.258064516129,0,3671.6129032258063,0,3758.387096774193,0,3862.258064516129,0,3952.2580645161293,0,3666.1290322580644,0,3660.322580645161,0,3672.9032258064512,0,3961.2903225806454,0,4034.516129032258,0,3722.5806451612902,0,4264.8387096774195,0,3940.0,0,0,0,?
2018-06-05 19:14:46.546474,3683.548387096774,0,3681.6129032258063,0,3682.9032258064517,0,3784.838709677419,0,3890.322580645161,0,3930.3225806451615,0,3680.0,0,3670.0,0,3673.2258064516127,0,3926.129032258065,0,4015.161290322581,0,3721.6129032258063,0,4290.322580645162,0,3924.193548387097,0,0,0,?
2018-06-05 19:14:46.547474,3676.451612903226,0,3673.2258064516127,0,3689.3548387096776,0,3789.6774193548385,0,3906.774193548387,0,3955.4838709677424,0,3683.870967741935,0,3667.0967741935483,0,3678.387096774193,0,3943.548387096774,0,3991.935483870968,0,3726.774193548387,0,4274.8387096774195,0,3917.741935483871,0,0,0,?
2018-06-05 19:14:46.553474,3658.064516129032,0,3662.5806451612902,0,3678.064516129032,0,3761.6129032258063,0,3851.290322580645,0,3957.0967741935488,0,3657.0967741935483,0,3661.290322580645,0,3671.290322580645,0,3939.0322580645166,0,4039.0322580645166,0,3733.548387096774,0,4252.580645161291,0,3947.741935483871,0,0,0,?
2018-06-05 19:14:46.603479,3658.064516129032,0,3662.5806451612902,0,3678.064516129032,0,3761.6129032258063,0,3851.290322580645,0,3957.0967741935488,0,3657.0967741935483,0,3661.290322580645,0,3671.290322580645,0,3939.0322580645166,0,4039.0322580645166,0,3733.548387096774,0,4252.580645161291,0,3947.741935483871,0,0,0,?
2018-06-05 19:14:46.614480,3658.064516129032,0,3662.5806451612902,0,3678.064516129032,0,3761.6129032258063,0,3851.290322580645,0,3957.0967741935488,0,3657.0967741935483,0,3661.290322580645,0,3671.290322580645,0,3939.0322580645166,0,4039.0322580645166,0,3733.548387096774,0,4252.580645161291,0,3947.741935483871,0,0,0,?
2018-06-05 19:14:46.619481,3658.064516129032,0,3662.5806451612902,0,3678.064516129032,0,3761.6129032258063,0,3851.290322580645,0,3957.0967741935488,0,3657.0967741935483,0,3661.290322580645,0,3671.290322580645,0,3939.0322580645166,0,4039.0322580645166,0,3733.548387096774,0,4252.580645161291,0,3947.741935483871,0,0,0,?
2018-06-05 19:14:46.619481,3658.064516129032,0,3662.5806451612902,0,3678.064516129032,0,3761.6129032258063,0,3851.290322580645,0,3957.0967741935488,0,3657.0967741935483,0,3661.290322580645,0,3671.290322580645,0,3939.0322580645166,0,4039.0322580645166,0,3733.548387096774,0,4252.580645161291,0,3947.741935483871,0,0,0,?
2018-06-05 19:14:46.620481,3675.1612903225805,0,3673.2258064516127,0,3693.225806451613,0,3743.8709677419356,0,3896.1290322580644,0,3944.1935483870966,0,3684.838709677419,0,3670.322580645161,0,3675.1612903225805,0,3950.3225806451615,0,3987.0967741935488,0,3733.870967741935,0,4260.967741935484,0,3949.0322580645166,0,0,0,?
2018-06-05 19:14:46.621481,3678.7096774193546,0,3678.7096774193546,0,3688.709677419355,0,3768.064516129032,0,3898.387096774193,0,3942.9032258064517,0,3684.516129032258,0,3666.1290322580644,0,3681.6129032258063,0,3947.4193548387098,0,4007.7419354838707,0,3726.451612903226,0,4261.935483870968,0,3981.612903225807,0,0,0,?
2018-06-05 19:14:46.621481,3678.7096774193546,0,3678.7096774193546,0,3688.709677419355,0,3768.064516129032,0,3898.387096774193,0,3942.9032258064517,0,3684.516129032258,0,3666.1290322580644,0,3681.6129032258063,0,3947.4193548387098,0,4007.7419354838707,0,3726.451612903226,0,4261.935483870968,0,3981.612903225807,0,0,0,?
2018-06-05 19:14:46.633482,3670.967741935484,0,3674.1935483870966,0,3685.1612903225805,0,3748.064516129032,0,3871.6129032258063,0,3909.3548387096776,0,3666.1290322580644,0,3671.290322580645,0,3676.774193548387,0,3970.645161290323,0,4017.4193548387098,0,3736.1290322580644,0,4281.290322580645,0,3979.3548387096776,0,0,0,?
2018-06-05 19:14:46.633482,3670.967741935484,0,3674.1935483870966,0,3685.1612903225805,0,3748.064516129032,0,3871.6129032258063,0,3909.3548387096776,0,3666.1290322580644,0,3671.290322580645,0,3676.774193548387,0,3970.645161290323,0,4017.4193548387098,0,3736.1290322580644,0,4281.290322580645,0,3979.3548387096776,0,0,0,?
2018-06-05 19:14:46.633482,3670.967741935484,0,3674.1935483870966,0,3685.1612903225805,0,3748.064516129032,0,3871.6129032258063,0,3909.3548387096776,0,3666.1290322580644,0,3671.290322580645,0,3676.774193548387,0,3970.645161290323,0,4017.4193548387098,0,3736.1290322580644,0,4281.290322580645,0,3979.3548387096776,0,0,0,?
2018-06-05 19:14:46.644483,3667.4193548387098,0,3682.258064516129,0,3646.774193548387,0,3779.354838709677,0,3887.0967741935483,0,3936.129032258065,0,3677.4193548387098,0,3670.967741935484,0,3673.870967741935,0,3940.0000000000005,0,4008.064516129032,0,3737.4193548387093,0,4278.064516129032,0,3944.5161290322585,0,0,0,?
2018-06-05 19:14:46.655485,3680.6451612903224,0,3674.1935483870966,0,3649.6774193548385,0,3773.870967741935,0,3890.322580645161,0,3923.225806451613,0,3682.5806451612902,0,3675.483870967742,0,3681.6129032258063,0,3929.3548387096776,0,4001.935483870968,0,3732.5806451612902,0,4273.225806451613,0,3941.612903225807,0,0,0,?
2018-06-05 19:14:46.666486,3680.6451612903224,0,3674.1935483870966,0,3649.6774193548385,0,3773.870967741935,0,3890.322580645161,0,3923.225806451613,0,3682.5806451612902,0,3675.483870967742,0,3681.6129032258063,0,3929.3548387096776,0,4001.935483870968,0,3732.5806451612902,0,4273.225806451613,0,3941.612903225807,0,0,0,?
2018-06-05 19:14:46.666486,3672.5806451612902,0,3678.064516129032,0,3694.193548387097,0,3773.548387096774,0,3872.5806451612902,0,3941.935483870968,0,3663.870967741935,0,3668.387096774193,0,3689.354838709677,0,3926.7741935483873,0,4003.8709677419356,0,3732.5806451612902,0,4238.064516129032,0,3945.8064516129034,0,0,0,?
2018-06-05 19:14:46.671486,3672.5806451612902,0,3678.064516129032,0,3694.193548387097,0,3773.548387096774,0,3872.5806451612902,0,3941.935483870968,0,3663.870967741935,0,3668.387096774193,0,3689.354838709677,0,3926.7741935483873,0,4003.8709677419356,0,3732.5806451612902,0,4238.064516129032,0,3945.8064516129034,0,0,0,?
2018-06-05 19:14:46.699489,3672.5806451612902,0,3678.064516129032,0,3694.193548387097,0,3773.548387096774,0,3872.5806451612902,0,3941.935483870968,0,3663.870967741935,0,3668.387096774193,0,3689.354838709677,0,3926.7741935483873,0,4003.8709677419356,0,3732.5806451612902,0,4238.064516129032,0,3945.8064516129034,0,0,0,?
2018-06-05 19:14:46.699489,3690.6451612903224,0,3684.516129032258,0,3652.9032258064512,0,3741.935483870968,0,3891.290322580645,0,3977.741935483871,0,3690.0,0,3682.5806451612902,0,3693.870967741935,0,3912.9032258064517,0,3997.741935483871,0,3745.1612903225805,0,4265.806451612903,0,3944.5161290322585,0,0,0,?
2018-06-05 19:14:46.699489,3670.967741935484,0,3670.967741935484,0,3691.6129032258063,0,3786.774193548387,0,3874.516129032258,0,3971.2903225806454,0,3678.387096774193,0,3673.870967741935,0,3690.0,0,3952.9032258064517,0,4010.3225806451615,0,3747.0967741935483,0,4260.645161290323,0,3965.8064516129034,0,0,0,?
2018-06-05 19:14:46.699489,3675.1612903225805,0,3672.5806451612902,0,3650.322580645161,0,3763.2258064516127,0,3861.9354838709673,0,3933.8709677419356,0,3657.0967741935483,0,3671.6129032258063,0,3690.6451612903224,0,3961.2903225806454,0,4016.7741935483873,0,3743.548387096774,0,4254.8387096774195,0,3984.516129032258,0,0,0,?
2018-06-05 19:14:46.710490,3704.516129032258,0,3695.483870967742,0,3657.4193548387098,0,3760.6451612903224,0,3910.322580645161,0,3943.8709677419356,0,3699.354838709677,0,3691.290322580645,0,3703.870967741935,0,3931.612903225807,0,4033.8709677419356,0,3747.7419354838707,0,4305.806451612903,0,3937.741935483871,0,0,0,?
2018-06-05 19:14:46.720491,3704.516129032258,0,3695.483870967742,0,3657.4193548387098,0,3760.6451612903224,0,3910.322580645161,0,3943.8709677419356,0,3699.354838709677,0,3691.290322580645,0,3703.870967741935,0,3931.612903225807,0,4033.8709677419356,0,3747.7419354838707,0,4305.806451612903,0,3937.741935483871,0,0,0,?
2018-06-05 19:14:46.726492,3704.516129032258,0,3695.483870967742,0,3657.4193548387098,0,3760.6451612903224,0,3910.322580645161,0,3943.8709677419356,0,3699.354838709677,0,3691.290322580645,0,3703.870967741935,0,3931.612903225807,0,4033.8709677419356,0,3747.7419354838707,0,4305.806451612903,0,3937.741935483871,0,0,0,?
2018-06-05 19:14:46.726492,3704.516129032258,0,3695.483870967742,0,3657.4193548387098,0,3760.6451612903224,0,3910.322580645161,0,3943.8709677419356,0,3699.354838709677,0,3691.290322580645,0,3703.870967741935,0,3931.612903225807,0,4033.8709677419356,0,3747.7419354838707,0,4305.806451612903,0,3937.741935483871,0,0,0,?
2018-06-05 19:14:46.752494,3704.516129032258,0,3695.483870967742,0,3657.4193548387098,0,3760.6451612903224,0,3910.322580645161,0,3943.8709677419356,0,3699.354838709677,0,3691.290322580645,0,3703.870967741935,0,3931.612903225807,0,4033.8709677419356,0,3747.7419354838707,0,4305.806451612903,0,3937.741935483871,0,0,0,?
2018-06-05 19:14:46.788498,3704.516129032258,0,3695.483870967742,0,3657.4193548387098,0,3760.6451612903224,0,3910.322580645161,0,3943.8709677419356,0,3699.354838709677,0,3691.290322580645,0,3703.870967741935,0,3931.612903225807,0,4033.8709677419356,0,3747.7419354838707,0,4305.806451612903,0,3937.741935483871,0,0,0,?
2018-06-05 19:14:46.788498,3697.0967741935483,0,3697.4193548387098,0,3662.5806451612902,0,3756.7741935483873,0,3908.387096774193,0,3955.161290322581,0,3696.451612903226,0,3689.032258064516,0,3696.774193548387,0,3924.5161290322585,0,4012.2580645161293,0,3751.6129032258063,0,4275.806451612903,0,3939.3548387096776,0,0,0,?
2018-06-05 19:14:46.788498,3697.0967741935483,0,3697.4193548387098,0,3662.5806451612902,0,3756.7741935483873,0,3908.387096774193,0,3955.161290322581,0,3696.451612903226,0,3689.032258064516,0,3696.774193548387,0,3924.5161290322585,0,4012.2580645161293,0,3751.6129032258063,0,4275.806451612903,0,3939.3548387096776,0,0,0,?
2018-06-05 19:14:46.789498,3689.6774193548385,0,3702.258064516129,0,3665.483870967742,0,3790.322580645161,0,3873.2258064516127,0,3957.741935483871,0,3688.387096774193,0,3691.6129032258063,0,3699.354838709677,0,3933.5483870967746,0,4044.193548387097,0,3755.806451612903,0,4256.451612903226,0,3946.451612903226,0,0,0,?
2018-06-05 19:14:46.799499,3689.6774193548385,0,3702.258064516129,0,3665.483870967742,0,3790.322580645161,0,3873.2258064516127,0,3957.741935483871,0,3688.387096774193,0,3691.6129032258063,0,3699.354838709677,0,3933.5483870967746,0,4044.193548387097,0,3755.806451612903,0,4256.451612903226,0,3946.451612903226,0,0,0,?
2018-06-05 19:14:46.799499,3682.5806451612902,0,3685.1612903225805,0,3657.7419354838707,0,3773.548387096774,0,3884.838709677419,0,3927.741935483871,0,3690.0,0,3687.7419354838707,0,3714.516129032258,0,3978.3870967741937,0,4039.0322580645166,0,3752.9032258064512,0,4277.41935483871,0,3954.1935483870966,0,0,0,?
2018-06-05 19:14:46.799499,3682.5806451612902,0,3685.1612903225805,0,3657.7419354838707,0,3773.548387096774,0,3884.838709677419,0,3927.741935483871,0,3690.0,0,3687.7419354838707,0,3714.516129032258,0,3978.3870967741937,0,4039.0322580645166,0,3752.9032258064512,0,4277.41935483871,0,3954.1935483870966,0,0,0,?
2018-06-05 19:14:46.815501,3682.5806451612902,0,3685.1612903225805,0,3657.7419354838707,0,3773.548387096774,0,3884.838709677419,0,3927.741935483871,0,3690.0,0,3687.7419354838707,0,3714.516129032258,0,3978.3870967741937,0,4039.0322580645166,0,3752.9032258064512,0,4277.41935483871,0,3954.1935483870966,0,0,0,?
2018-06-05 19:14:46.830502,3682.5806451612902,0,3685.1612903225805,0,3657.7419354838707,0,3773.548387096774,0,3884.838709677419,0,3927.741935483871,0,3690.0,0,3687.7419354838707,0,3714.516129032258,0,3978.3870967741937,0,4039.0322580645166,0,3752.9032258064512,0,4277.41935483871,0,3954.1935483870966,0,0,0,?
2018-06-05 19:14:46.851504,3682.5806451612902,0,3685.1612903225805,0,3657.7419354838707,0,3773.548387096774,0,3884.838709677419,0,3927.741935483871,0,3690.0,0,3687.7419354838707,0,3714.516129032258,0,3978.3870967741937,0,4039.0322580645166,0,3752.9032258064512,0,4277.41935483871,0,3954.1935483870966,0,0,0,?
2018-06-05 19:14:46.851504,3682.5806451612902,0,3685.1612903225805,0,3657.7419354838707,0,3773.548387096774,0,3884.838709677419,0,3927.741935483871,0,3690.0,0,3687.7419354838707,0,3714.516129032258,0,3978.3870967741937,0,4039.0322580645166,0,3752.9032258064512,0,4277.41935483871,0,3954.1935483870966,0,0,0,?
2018-06-05 19:14:46.856505,3682.5806451612902,0,3685.1612903225805,0,3657.7419354838707,0,3773.548387096774,0,3884.838709677419,0,3927.741935483871,0,3690.0,0,3687.7419354838707,0,3714.516129032258,0,3978.3870967741937,0,4039.0322580645166,0,3752.9032258064512,0,4277.41935483871,0,3954.1935483870966,0,0,0,?
2018-06-05 19:14:46.856505,3682.5806451612902,0,3685.1612903225805,0,3657.7419354838707,0,3773.548387096774,0,3884.838709677419,0,3927.741935483871,0,3690.0,0,3687.7419354838707,0,3714.516129032258,0,3978.3870967741937,0,4039.0322580645166,0,3752.9032258064512,0,4277.41935483871,0,3954.1935483870966,0,0,0,?
2018-06-05 19:14:46.881507,3708.064516129032,0,3693.870967741935,0,3662.258064516129,0,3754.193548387097,0,3872.5806451612902,0,3952.9032258064517,0,3713.870967741935,0,3707.4193548387098,0,3718.064516129032,0,3926.7741935483873,0,4037.0967741935483,0,3760.967741935484,0,4308.064516129032,0,3949.677419354839,0,0,0,?
2018-06-05 19:14:46.912510,3690.6451612903224,0,3705.483870967742,0,3674.1935483870966,0,3743.8709677419356,0,3874.1935483870966,0,3952.9032258064517,0,3690.967741935484,0,3695.1612903225805,0,3710.6451612903224,0,3950.967741935484,0,4034.5161290322585,0,3761.935483870968,0,4254.193548387097,0,3950.6451612903224,0,0,0,?
2018-06-05 19:14:46.912510,3690.6451612903224,0,3705.483870967742,0,3674.1935483870966,0,3743.8709677419356,0,3874.1935483870966,0,3952.9032258064517,0,3690.967741935484,0,3695.1612903225805,0,3710.6451612903224,0,3950.967741935484,0,4034.5161290322585,0,3761.935483870968,0,4254.193548387097,0,3950.6451612903224,0,0,0,?
2018-06-05 19:14:46.912510,3690.6451612903224,0,3705.483870967742,0,3674.1935483870966,0,3743.8709677419356,0,3874.1935483870966,0,3952.9032258064517,0,3690.967741935484,0,3695.1612903225805,0,3710.6451612903224,0,3950.967741935484,0,4034.5161290322585,0,3761.935483870968,0,4254.193548387097,0,3950.6451612903224,0,0,0,?
2018-06-05 19:14:46.912510,3690.6451612903224,0,3705.483870967742,0,3674.1935483870966,0,3743.8709677419356,0,3874.1935483870966,0,3952.9032258064517,0,3690.967741935484,0,3695.1612903225805,0,3710.6451612903224,0,3950.967741935484,0,4034.5161290322585,0,3761.935483870968,0,4254.193548387097,0,3950.6451612903224,0,0,0,?
2018-06-05 19:14:46.912510,3690.6451612903224,0,3705.483870967742,0,3674.1935483870966,0,3743.8709677419356,0,3874.1935483870966,0,3952.9032258064517,0,3690.967741935484,0,3695.1612903225805,0,3710.6451612903224,0,3950.967741935484,0,4034.5161290322585,0,3761.935483870968,0,4254.193548387097,0,3950.6451612903224,0,0,0,?
2018-06-05 19:14:46.917511,3705.806451612903,0,3717.4193548387093,0,3676.1290322580644,0,3771.6129032258063,0,3914.1935483870966,0,3958.7096774193546,0,3705.1612903225805,0,3702.9032258064512,0,3714.838709677419,0,3915.161290322581,0,3984.5161290322585,0,3761.6129032258063,0,4293.870967741936,0,3950.967741935484,0,0,0,?
2018-06-05 19:14:46.917511,3704.516129032258,0,3708.064516129032,0,3671.935483870968,0,3742.9032258064517,0,3876.4516129032254,0,3952.2580645161293,0,3694.838709677419,0,3702.5806451612902,0,3713.870967741935,0,3937.4193548387098,0,4004.8387096774195,0,3761.6129032258063,0,4291.612903225807,0,3971.6129032258063,0,0,0,?
2018-06-05 19:14:46.939513,3720.6451612903224,0,3688.064516129032,0,3690.967741935484,0,3781.6129032258063,0,3872.9032258064517,0,3955.1612903225805,0,3717.0967741935483,0,3716.451612903226,0,3681.935483870968,0,3916.129032258065,0,3979.0322580645166,0,3770.322580645161,0,4304.8387096774195,0,3964.193548387097,0,0,0,?
2018-06-05 19:14:46.939513,3720.6451612903224,0,3688.064516129032,0,3690.967741935484,0,3781.6129032258063,0,3872.9032258064517,0,3955.1612903225805,0,3717.0967741935483,0,3716.451612903226,0,3681.935483870968,0,3916.129032258065,0,3979.0322580645166,0,3770.322580645161,0,4304.8387096774195,0,3964.193548387097,0,0,0,?
2018-06-05 19:14:46.939513,3720.6451612903224,0,3688.064516129032,0,3690.967741935484,0,3781.6129032258063,0,3872.9032258064517,0,3955.1612903225805,0,3717.0967741935483,0,3716.451612903226,0,3681.935483870968,0,3916.129032258065,0,3979.0322580645166,0,3770.322580645161,0,4304.8387096774195,0,3964.193548387097,0,0,0,?
2018-06-05 19:14:46.945514,3720.6451612903224,0,3688.064516129032,0,3690.967741935484,0,3781.6129032258063,0,3872.9032258064517,0,3955.1612903225805,0,3717.0967741935483,0,3716.451612903226,0,3681.935483870968,0,3916.129032258065,0,3979.0322580645166,0,3770.322580645161,0,4304.8387096774195,0,3964.193548387097,0,0,0,?
2018-06-05 19:14:46.965516,3720.6451612903224,0,3688.064516129032,0,3690.967741935484,0,3781.6129032258063,0,3872.9032258064517,0,3955.1612903225805,0,3717.0967741935483,0,3716.451612903226,0,3681.935483870968,0,3916.129032258065,0,3979.0322580645166,0,3770.322580645161,0,4304.8387096774195,0,3964.193548387097,0,0,0,?
2018-06-05 19:14:46.965516,3720.6451612903224,0,3688.064516129032,0,3690.967741935484,0,3781.6129032258063,0,3872.9032258064517,0,3955.1612903225805,0,3717.0967741935483,0,3716.451612903226,0,3681.935483870968,0,3916.129032258065,0,3979.0322580645166,0,3770.322580645161,0,4304.8387096774195,0,3964.193548387097,0,0,0,?
2018-06-05 19:14:46.965516,3720.6451612903224,0,3688.064516129032,0,3690.967741935484,0,3781.6129032258063,0,3872.9032258064517,0,3955.1612903225805,0,3717.0967741935483,0,3716.451612903226,0,3681.935483870968,0,3916.129032258065,0,3979.0322580645166,0,3770.322580645161,0,4304.8387096774195,0,3964.193548387097,0,0,0,?
2018-06-05 19:14:46.970516,3720.6451612903224,0,3688.064516129032,0,3690.967741935484,0,3781.6129032258063,0,3872.9032258064517,0,3955.1612903225805,0,3717.0967741935483,0,3716.451612903226,0,3681.935483870968,0,3916.129032258065,0,3979.0322580645166,0,3770.322580645161,0,4304.8387096774195,0,3964.193548387097,0,0,0,?
2018-06-05 19:14:46.986518,3720.6451612903224,0,3688.064516129032,0,3690.967741935484,0,3781.6129032258063,0,3872.9032258064517,0,3955.1612903225805,0,3717.0967741935483,0,3716.451612903226,0,3681.935483870968,0,3916.129032258065,0,3979.0322580645166,0,3770.322580645161,0,4304.8387096774195,0,3964.193548387097,0,0,0,?
2018-06-05 19:14:46.986518,3720.6451612903224,0,3688.064516129032,0,3690.967741935484,0,3781.6129032258063,0,3872.9032258064517,0,3955.1612903225805,0,3717.0967741935483,0,3716.451612903226,0,3681.935483870968,0,3916.129032258065,0,3979.0322580645166,0,3770.322580645161,0,4304.8387096774195,0,3964.193548387097,0,0,0,?
2018-06-05 19:14:46.992518,3720.6451612903224,0,3688.064516129032,0,3690.967741935484,0,3781.6129032258063,0,3872.9032258064517,0,3955.1612903225805,0,3717.0967741935483,0,3716.451612903226,0,3681.935483870968,0,3916.129032258065,0,3979.0322580645166,0,3770.322580645161,0,4304.8387096774195,0,3964.193548387097,0,0,0,?
2018-06-05 19:14:46.992518,3720.6451612903224,0,3688.064516129032,0,3690.967741935484,0,3781.6129032258063,0,3872.9032258064517,0,3955.1612903225805,0,3717.0967741935483,0,3716.451612903226,0,3681.935483870968,0,3916.129032258065,0,3979.0322580645166,0,3770.322580645161,0,4304.8387096774195,0,3964.193548387097,0,0,0,?
2018-06-05 19:14:47.019521,3720.6451612903224,0,3727.4193548387093,0,3685.483870967742,0,3788.709677419355,0,3920.6451612903224,0,3959.032258064516,0,3682.5806451612902,0,3714.1935483870966,0,3680.3225806451615,0,3952.9032258064517,0,3987.0967741935488,0,3775.1612903225805,0,4268.064516129032,0,3951.6129032258063,0,0,0,?
2018-06-05 19:14:47.019521,3721.290322580645,0,3687.0967741935483,0,3695.483870967742,0,3772.5806451612902,0,3877.741935483871,0,3975.161290322581,0,3722.5806451612902,0,3727.4193548387093,0,3678.064516129032,0,3956.7741935483873,0,4004.516129032258,0,3780.322580645161,0,4287.419354838709,0,3973.225806451613,0,0,0,?
2018-06-05 19:14:47.030522,3721.290322580645,0,3687.0967741935483,0,3695.483870967742,0,3772.5806451612902,0,3877.741935483871,0,3975.161290322581,0,3722.5806451612902,0,3727.4193548387093,0,3678.064516129032,0,3956.7741935483873,0,4004.516129032258,0,3780.322580645161,0,4287.419354838709,0,3973.225806451613,0,0,0,?
2018-06-05 19:14:47.030522,3721.290322580645,0,3687.0967741935483,0,3695.483870967742,0,3772.5806451612902,0,3877.741935483871,0,3975.161290322581,0,3722.5806451612902,0,3727.4193548387093,0,3678.064516129032,0,3956.7741935483873,0,4004.516129032258,0,3780.322580645161,0,4287.419354838709,0,3973.225806451613,0,0,0,?
2018-06-05 19:14:47.051524,3683.225806451613,0,3723.2258064516127,0,3686.1290322580644,0,3774.516129032258,0,3877.4193548387098,0,3956.129032258065,0,3679.032258064516,0,3721.935483870968,0,3680.3225806451615,0,3952.2580645161293,0,4013.548387096774,0,3782.258064516129,0,4267.096774193548,0,3955.4838709677424,0,0,0,?
2018-06-05 19:14:47.051524,3679.3548387096776,0,3678.3870967741937,0,3698.387096774193,0,3780.0,0,3873.225806451613,0,3959.3548387096776,0,3725.806451612903,0,3681.2903225806454,0,3682.2580645161293,0,3936.7741935483873,0,4040.3225806451615,0,3779.032258064516,0,4295.483870967742,0,3955.8064516129034,0,0,0,?
2018-06-05 19:14:47.061525,3679.3548387096776,0,3678.3870967741937,0,3698.387096774193,0,3780.0,0,3873.225806451613,0,3959.3548387096776,0,3725.806451612903,0,3681.2903225806454,0,3682.2580645161293,0,3936.7741935483873,0,4040.3225806451615,0,3779.032258064516,0,4295.483870967742,0,3955.8064516129034,0,0,0,?
2018-06-05 19:14:47.066526,3679.3548387096776,0,3678.3870967741937,0,3698.387096774193,0,3780.0,0,3873.225806451613,0,3959.3548387096776,0,3725.806451612903,0,3681.2903225806454,0,3682.2580645161293,0,3936.7741935483873,0,4040.3225806451615,0,3779.032258064516,0,4295.483870967742,0,3955.8064516129034,0,0,0,?
2018-06-05 19:14:47.108530,3725.1612903225805,0,3720.0,0,3683.2258064516127,0,3766.1290322580644,0,3876.451612903226,0,3970.645161290323,0,3725.806451612903,0,3720.6451612903224,0,3678.3870967741937,0,3931.612903225807,0,4021.612903225807,0,3785.806451612903,0,4277.41935483871,0,3950.967741935484,0,0,0,?
2018-06-05 19:14:47.108530,3725.1612903225805,0,3720.0,0,3683.2258064516127,0,3766.1290322580644,0,3876.451612903226,0,3970.645161290323,0,3725.806451612903,0,3720.6451612903224,0,3678.3870967741937,0,3931.612903225807,0,4021.612903225807,0,3785.806451612903,0,4277.41935483871,0,3950.967741935484,0,0,0,?
2018-06-05 19:14:47.113530,3714.838709677419,0,3682.2580645161293,0,3694.1935483870966,0,3779.3548387096776,0,3902.5806451612902,0,3978.709677419355,0,3708.387096774193,0,3721.290322580645,0,3678.709677419355,0,3929.3548387096776,0,4007.4193548387098,0,3774.1935483870966,0,4272.580645161291,0,3940.3225806451615,0,0,0,?
2018-06-05 19:14:47.113530,3718.064516129032,0,3691.935483870968,0,3687.4193548387098,0,3777.4193548387098,0,3911.290322580645,0,3984.8387096774195,0,3724.1935483870966,0,3725.1612903225805,0,3685.1612903225805,0,3940.0000000000005,0,4012.5806451612907,0,3775.1612903225805,0,4285.483870967742,0,3936.451612903226,0,0,0,?
2018-06-05 19:14:47.145534,3718.064516129032,0,3691.935483870968,0,3687.4193548387098,0,3777.4193548387098,0,3911.290322580645,0,3984.8387096774195,0,3724.1935483870966,0,3725.1612903225805,0,3685.1612903225805,0,3940.0000000000005,0,4012.5806451612907,0,3775.1612903225805,0,4285.483870967742,0,3936.451612903226,0,0,0,?
2018-06-05 19:14:47.150534,3714.838709677419,0,3723.548387096774,0,3679.032258064516,0,3751.6129032258063,0,3896.1290322580644,0,3980.0000000000005,0,3719.032258064516,0,3726.774193548387,0,3687.4193548387098,0,3971.612903225807,0,4020.0000000000005,0,3784.1935483870966,0,4283.225806451613,0,3961.6129032258063,0,0,0,?
2018-06-05 19:14:47.165536,3690.6451612903224,0,3677.4193548387098,0,3691.935483870968,0,3778.3870967741937,0,3910.322580645161,0,3941.935483870968,0,3724.1935483870966,0,3680.967741935484,0,3687.4193548387098,0,3952.5806451612907,0,3980.967741935484,0,3781.6129032258063,0,4275.1612903225805,0,3951.6129032258063,0,0,0,?
2018-06-05 19:14:47.176537,3699.3548387096776,0,3697.0967741935483,0,3695.483870967742,0,3786.1290322580644,0,3887.0967741935483,0,3964.193548387097,0,3686.1290322580644,0,3679.3548387096776,0,3686.451612903226,0,3950.645161290323,0,4021.935483870968,0,3786.451612903226,0,4282.903225806452,0,3982.2580645161293,0,0,0,?
2018-06-05 19:14:47.176537,3726.774193548387,0,3724.838709677419,0,3702.258064516129,0,3761.2903225806454,0,3890.322580645161,0,3956.451612903226,0,3717.7419354838707,0,3720.967741935484,0,3682.9032258064517,0,3965.4838709677424,0,4017.7419354838707,0,3747.741935483871,0,4259.032258064516,0,3945.483870967742,0,0,0,?
2018-06-05 19:14:47.176537,3726.774193548387,0,3724.838709677419,0,3702.258064516129,0,3761.2903225806454,0,3890.322580645161,0,3956.451612903226,0,3717.7419354838707,0,3720.967741935484,0,3682.9032258064517,0,3965.4838709677424,0,4017.7419354838707,0,3747.741935483871,0,4259.032258064516,0,3945.483870967742,0,0,0,?
2018-06-05 19:14:47.176537,3726.774193548387,0,3724.838709677419,0,3702.258064516129,0,3761.2903225806454,0,3890.322580645161,0,3956.451612903226,0,3717.7419354838707,0,3720.967741935484,0,3682.9032258064517,0,3965.4838709677424,0,4017.7419354838707,0,3747.741935483871,0,4259.032258064516,0,3945.483870967742,0,0,0,?
2018-06-05 19:14:47.177537,3726.774193548387,0,3724.838709677419,0,3702.258064516129,0,3761.2903225806454,0,3890.322580645161,0,3956.451612903226,0,3717.7419354838707,0,3720.967741935484,0,3682.9032258064517,0,3965.4838709677424,0,4017.7419354838707,0,3747.741935483871,0,4259.032258064516,0,3945.483870967742,0,0,0,?
2018-06-05 19:14:47.198539,3726.774193548387,0,3724.838709677419,0,3702.258064516129,0,3761.2903225806454,0,3890.322580645161,0,3956.451612903226,0,3717.7419354838707,0,3720.967741935484,0,3682.9032258064517,0,3965.4838709677424,0,4017.7419354838707,0,3747.741935483871,0,4259.032258064516,0,3945.483870967742,0,0,0,?
2018-06-05 19:14:47.198539,3726.774193548387,0,3724.838709677419,0,3702.258064516129,0,3761.2903225806454,0,3890.322580645161,0,3956.451612903226,0,3717.7419354838707,0,3720.967741935484,0,3682.9032258064517,0,3965.4838709677424,0,4017.7419354838707,0,3747.741935483871,0,4259.032258064516,0,3945.483870967742,0,0,0,?
2018-06-05 19:14:47.228542,3726.774193548387,0,3724.838709677419,0,3702.258064516129,0,3761.2903225806454,0,3890.322580645161,0,3956.451612903226,0,3717.7419354838707,0,3720.967741935484,0,3682.9032258064517,0,3965.4838709677424,0,4017.7419354838707,0,3747.741935483871,0,4259.032258064516,0,3945.483870967742,0,0,0,?
2018-06-05 19:14:47.228542,3726.774193548387,0,3724.838709677419,0,3702.258064516129,0,3761.2903225806454,0,3890.322580645161,0,3956.451612903226,0,3717.7419354838707,0,3720.967741935484,0,3682.9032258064517,0,3965.4838709677424,0,4017.7419354838707,0,3747.741935483871,0,4259.032258064516,0,3945.483870967742,0,0,0,?
2018-06-05 19:14:47.240543,3692.2580645161293,0,3692.9032258064517,0,3710.322580645161,0,3793.8709677419356,0,3875.483870967742,0,3950.0,0,3683.548387096774,0,3682.5806451612902,0,3693.548387096774,0,3928.3870967741937,0,3975.161290322581,0,3748.064516129032,0,4306.451612903226,0,3979.3548387096776,0,0,0,?
2018-06-05 19:14:47.240543,3683.8709677419356,0,3690.0,0,3702.9032258064512,0,3765.1612903225805,0,3903.2258064516127,0,3978.3870967741937,0,3717.4193548387093,0,3680.3225806451615,0,3703.8709677419356,0,3958.0645161290327,0,3984.5161290322585,0,3743.548387096774,0,4277.41935483871,0,3981.6129032258063,0,0,0,?
2018-06-05 19:14:47.240543,3690.3225806451615,0,3697.4193548387098,0,3716.1290322580644,0,3789.6774193548385,0,3875.8064516129034,0,3956.1290322580644,0,3688.064516129032,0,3689.3548387096776,0,3706.1290322580644,0,3948.3870967741937,0,4034.8387096774195,0,3747.0967741935483,0,4305.806451612903,0,3955.8064516129034,0,0,0,?
2018-06-05 19:14:47.240543,3684.8387096774195,0,3681.6129032258063,0,3700.6451612903224,0,3772.2580645161293,0,3898.7096774193546,0,3968.709677419355,0,3679.032258064516,0,3680.3225806451615,0,3699.677419354839,0,3979.3548387096776,0,4030.6451612903224,0,3748.709677419355,0,4303.225806451613,0,3972.2580645161293,0,0,0,?
2018-06-05 19:14:47.240543,3690.0,0,3690.3225806451615,0,3696.774193548387,0,3777.4193548387098,0,3913.2258064516127,0,3975.4838709677424,0,3688.064516129032,0,3682.9032258064517,0,3698.3870967741937,0,3970.645161290323,0,4047.741935483871,0,3747.4193548387098,0,4265.4838709677415,0,3970.967741935484,0,0,0,?
2018-06-05 19:14:47.240543,3684.193548387097,0,3692.9032258064517,0,3710.6451612903224,0,3776.7741935483873,0,3920.0,0,3946.451612903226,0,3686.7741935483873,0,3683.225806451613,0,3705.483870967742,0,3938.7096774193546,0,4042.5806451612902,0,3751.2903225806454,0,4277.096774193548,0,3938.7096774193546,0,0,0,?
2018-06-05 19:14:47.288548,3700.6451612903224,0,3697.741935483871,0,3706.1290322580644,0,3796.1290322580644,0,3890.967741935484,0,3945.8064516129034,0,3701.6129032258063,0,3692.5806451612902,0,3705.8064516129034,0,3945.8064516129034,0,4016.7741935483873,0,3754.193548387097,0,4301.935483870968,0,3970.0000000000005,0,0,0,?
2018-06-05 19:14:47.294548,3686.451612903226,0,3688.3870967741937,0,3700.0,0,3769.032258064516,0,3895.806451612903,0,3966.129032258065,0,3725.806451612903,0,3683.225806451613,0,3702.5806451612902,0,3979.3548387096776,0,4025.161290322581,0,3753.225806451613,0,4269.032258064516,0,3956.7741935483873,0,0,0,?
2018-06-05 19:14:47.309550,3686.451612903226,0,3688.3870967741937,0,3700.0,0,3769.032258064516,0,3895.806451612903,0,3966.129032258065,0,3725.806451612903,0,3683.225806451613,0,3702.5806451612902,0,3979.3548387096776,0,4025.161290322581,0,3753.225806451613,0,4269.032258064516,0,3956.7741935483873,0,0,0,?
2018-06-05 19:14:47.315551,3686.451612903226,0,3688.3870967741937,0,3700.0,0,3769.032258064516,0,3895.806451612903,0,3966.129032258065,0,3725.806451612903,0,3683.225806451613,0,3702.5806451612902,0,3979.3548387096776,0,4025.161290322581,0,3753.225806451613,0,4269.032258064516,0,3956.7741935483873,0,0,0,?
2018-06-05 19:14:47.321551,3686.451612903226,0,3688.3870967741937,0,3700.0,0,3769.032258064516,0,3895.806451612903,0,3966.129032258065,0,3725.806451612903,0,3683.225806451613,0,3702.5806451612902,0,3979.3548387096776,0,4025.161290322581,0,3753.225806451613,0,4269.032258064516,0,3956.7741935483873,0,0,0,?
2018-06-05 19:14:47.327552,3710.0,0,3715.8064516129034,0,3720.6451612903224,0,3809.3548387096776,0,3887.0967741935483,0,3967.4193548387098,0,3710.3225806451615,0,3694.8387096774195,0,3706.7741935483873,0,3925.8064516129034,0,3968.0645161290327,0,3758.064516129032,0,4259.677419354839,0,3978.0645161290327,0,0,0,?
2018-06-05 19:14:47.342553,3710.0,0,3715.8064516129034,0,3720.6451612903224,0,3809.3548387096776,0,3887.0967741935483,0,3967.4193548387098,0,3710.3225806451615,0,3694.8387096774195,0,3706.7741935483873,0,3925.8064516129034,0,3968.0645161290327,0,3758.064516129032,0,4259.677419354839,0,3978.0645161290327,0,0,0,?
2018-06-05 19:14:47.342553,3710.0,0,3715.8064516129034,0,3720.6451612903224,0,3809.3548387096776,0,3887.0967741935483,0,3967.4193548387098,0,3710.3225806451615,0,3694.8387096774195,0,3706.7741935483873,0,3925.8064516129034,0,3968.0645161290327,0,3758.064516129032,0,4259.677419354839,0,3978.0645161290327,0,0,0,?
2018-06-05 19:14:47.342553,3677.741935483871,0,3692.5806451612902,0,3706.451612903226,0,3768.064516129032,0,3898.064516129032,0,3937.741935483871,0,3682.2580645161293,0,3677.741935483871,0,3704.8387096774195,0,3982.2580645161293,0,4004.516129032258,0,3754.516129032258,0,4272.580645161291,0,3997.4193548387098,0,0,0,?
2018-06-05 19:14:47.342553,3711.2903225806454,0,3708.3870967741937,0,3721.935483870968,0,3801.935483870968,0,3883.8709677419356,0,3946.7741935483873,0,3698.709677419355,0,3701.2903225806454,0,3707.0967741935483,0,3964.193548387097,0,4014.193548387097,0,3752.9032258064517,0,4280.0,0,3945.1612903225805,0,0,0,?
2018-06-05 19:14:47.342553,3703.225806451613,0,3692.9032258064517,0,3715.806451612903,0,3789.032258064516,0,3882.5806451612902,0,3946.7741935483873,0,3697.4193548387098,0,3697.741935483871,0,3707.4193548387098,0,3978.0645161290327,0,4047.0967741935488,0,3766.1290322580644,0,4294.193548387097,0,3983.8709677419356,0,0,0,?
